Timestamp,F3 Value,F3 Quality,FC5 Value,FC5 Quality,F7 Value,F7 Quality,T7 Value,T7 Quality,P7 Value,P7 Quality,O1 Value,O1 Quality,O2 Value,O2 Quality,P8 Value,P8 Quality,T8 Value,T8 Quality,F8 Value,F8 Quality,AF4 Value,AF4 Quality,FC6 Value,FC6 Quality,F4 Value,F4 Quality,AF3 Value,AF3 Quality,X Value,Y Value,Z Value
2018-07-08 16:22:41.736413,8090.12821326,0,5201.92307894,0,8155.89744417,0,7991.53846946,0,443.07691502,0,7565.12821215,0,3035.89743333,0,4808.07692426,0,4873.58974491,0,4841.15384741,0,4414.23076958,0,7138.33333945,0,7138.58974971,0,7663.71795595,0,0,0,?
2018-07-08 16:22:41.736413,8090.12821326,0,5201.92307894,0,8155.89744417,0,7991.53846946,0,443.07691502,0,7565.12821215,0,3035.89743333,0,4808.07692426,0,4873.58974491,0,4841.15384741,0,4414.23076958,0,7138.33333945,0,7138.58974971,0,7663.71795595,0,0,0,?
2018-07-08 16:22:41.747383,1197.82050636,0,6088.07692697,0,4348.84615406,0,3396.79486999,0,7663.33334056,0,5464.35897693,0,3528.07692155,0,5300.38461761,0,6777.17949253,0,7631.02564819,0,3396.79486999,0,7466.92308374,0,3593.58974220,0,4315.51282066,0,0,0,?
2018-07-08 16:22:41.747383,7007.05128789,0,6186.53846564,0,3528.33333181,0,4381.41025669,0,4840.89743715,0,7860.38462303,0,7466.53846835,0,1526.02563526,0,4381.28205156,0,4086.53846119,0,3757.82051178,0,6482.43590216,0,16.41024745,0,3199.99999778,0,0,0,?
2018-07-08 16:22:41.747383,7007.05128789,0,6186.53846564,0,3528.33333181,0,4381.41025669,0,4840.89743715,0,7860.38462303,0,7466.53846835,0,1526.02563526,0,4381.28205156,0,4086.53846119,0,3757.82051178,0,6482.43590216,0,16.41024745,0,3199.99999778,0,0,0,?
2018-07-08 16:22:41.747383,7007.05128789,0,6186.53846564,0,3528.33333181,0,4381.41025669,0,4840.89743715,0,7860.38462303,0,7466.53846835,0,1526.02563526,0,4381.28205156,0,4086.53846119,0,3757.82051178,0,6482.43590216,0,16.41024745,0,3199.99999778,0,0,0,?
2018-07-08 16:22:41.762170,639.87178723,0,4479.87179536,0,147.82050414,0,2674.74358641,0,2346.53845751,0,1394.74358370,0,6219.35897853,0,738.33332590,0,2149.48717504,0,1559.35896866,0,278.84614544,0,5136.79487367,0,1526.02563526,0,7171.02564721,0,0,0,?
2018-07-08 16:22:41.762170,8286.92308547,0,2641.92307352,0,7335.38462192,0,2609.10256063,0,803.97435168,0,1558.84614815,0,4840.89743715,0,4282.94871802,0,2215.12820082,0,6974.61539039,0,7893.07693079,0,8189.10257244,0,1821.41025127,0,6777.17949253,0,0,0,?
2018-07-08 16:22:41.786105,5464.48718206,0,3199.87179265,0,7729.23077660,0,8188.46154680,0,1263.46153214,0,6383.33333785,0,5201.92307894,0,5267.56410472,0,541.41024856,0,6810.76923619,0,672.69230012,0,6121.53846550,0,6481.79487652,0,4643.84615468,0,0,0,?
2018-07-08 16:22:41.786105,7893.20513592,0,5366.02564339,0,8057.43590550,0,1526.02563526,0,2149.61538017,0,1361.92307081,0,6449.10256876,0,16.41024745,0,7236.66667299,0,5300.89743812,0,2904.48717664,0,2642.56409916,0,4086.02564068,0,1919.87178994,0,0,0,?
2018-07-08 16:22:41.803060,1296.41025016,0,6678.84615899,0,2412.43589355,0,4676.79487270,0,8155.64103391,0,7466.41026322,0,4381.41025669,0,1493.33332750,0,5661.28205427,0,312.30768397,0,5595.76923362,0,1362.82050671,0,311.66665833,0,4643.84615468,0,0,0,?
2018-07-08 16:22:41.811065,3790.76922980,0,5431.66666917,0,2215.51281621,0,6022.43590119,0,935.25640324,0,1722.94871260,0,4512.69230825,0,7171.15385234,0,180.38460677,0,6581.15385109,0,7236.79487812,0,3496.28204969,0,1132.17948058,0,705.51281301,0,0,0,?
2018-07-08 16:22:41.827028,7105.64103169,287.9696969409,5464.48718206,0,16.53845258,0,5858.33333674,0,5923.97436252,0,574.35896658,0,8090.12821326,0,4709.61538559,0,7860.25641790,0,5137.05128393,0,705.64101814,0,3528.97435745,0,3035.89743333,0,2773.33333021,0,0,0,?
2018-07-08 16:22:41.827028,7105.64103169,287.9696969409,5464.48718206,0,16.53845258,0,5858.33333674,0,5923.97436252,0,574.35896658,0,8090.12821326,0,4709.61538559,0,7860.25641790,0,5137.05128393,0,705.64101814,0,3528.97435745,0,3035.89743333,0,2773.33333021,0,0,0,?
2018-07-08 16:22:41.834973,2806.15384310,287.9696969409,1788.58973838,8299.6060597761,279.10255570,0,7433.58975033,0,2477.82050907,0,3823.46153756,0,4217.30769224,0,7006.92308276,0,771.15383879,0,3266.28204920,0,8155.76923904,0,5990.64102933,0,5070.64102738,0,6580.38462032,6140.0909084769,0,0,?
2018-07-08 16:22:41.842954,2806.15384310,287.9696969409,1788.58973838,8299.6060597761,279.10255570,0,7433.58975033,0,2477.82050907,0,3823.46153756,0,4217.30769224,0,7006.92308276,0,771.15383879,0,3266.28204920,0,8155.76923904,0,5990.64102933,0,5070.64102738,0,6580.38462032,6140.0909084769,0,0,?
2018-07-08 16:22:41.859907,2806.28204823,287.9696969409,7433.71795546,8299.6060597761,6646.15385123,2926.060605768,5661.41025940,1392.9696968304,1427.69230172,0,2773.33333021,0,4873.84615517,0,8385.51282927,0,7072.69231367,0,5235.51282260,0,7696.41026371,0,7697.17949448,0,7007.17949302,0,3692.17948600,6140.0909084769,0,0,?
2018-07-08 16:22:41.867888,246.15383768,287.9696969409,7171.15385234,8299.6060597761,1920.12820020,2926.060605768,2083.97435439,1392.9696968304,3002.82051018,3255.2424239169,6481.53846627,0,6678.71795386,0,1296.41025016,0,4939.35897582,0,2150.38461094,0,7007.17949302,0,6942.43590314,0,3265.12820305,0,1295.76922452,6140.0909084769,0,0,?
2018-07-08 16:22:41.872903,4512.82051338,287.9696969409,5595.76923362,8299.6060597761,6678.97436412,2926.060605768,7925.89744368,1392.9696968304,4775.25641137,3255.2424239169,7761.92308436,8118.2727264609,147.69229901,0,5398.84615628,0,1493.20512237,0,5793.46154173,0,7138.33333945,0,5629.74359267,0,3134.35897200,0,3003.07692044,6140.0909084769,0,0,?
2018-07-08 16:22:41.872903,4512.82051338,287.9696969409,5595.76923362,8299.6060597761,6678.97436412,2926.060605768,7925.89744368,1392.9696968304,4775.25641137,3255.2424239169,7761.92308436,8118.2727264609,147.69229901,0,5398.84615628,0,1493.20512237,0,5793.46154173,0,7138.33333945,0,5629.74359267,0,3134.35897200,0,3003.07692044,6140.0909084769,0,0,?
2018-07-08 16:22:41.888830,1985.64102085,287.9696969409,6580.38462032,8299.6060597761,8188.71795706,2926.060605768,3331.15384421,1392.9696968304,3495.25640866,3255.2424239169,1493.20512237,8118.2727264609,8221.41026482,4969.6666661697,5300.38461761,0,147.56409388,0,6712.43590265,0,6711.66667188,0,7401.92308360,0,4250.12820513,0,6678.71795386,6140.0909084769,0,0,?
2018-07-08 16:22:41.888830,8385.38462414,287.9696969409,311.66665833,8299.6060597761,3495.38461379,2926.060605768,7006.92308276,1392.9696968304,7728.97436634,3255.2424239169,81.92306810,8118.2727264609,3757.82051178,4969.6666661697,7105.38462143,2200.2121209921,4217.05128199,3997.0606056609,6810.64103106,4260.8181813921,3888.97435821,0,181.41024780,0,935.25640324,0,16.28204232,6140.0909084769,0,0,?
2018-07-08 16:22:41.889829,8385.38462414,287.9696969409,311.66665833,8299.6060597761,3495.38461379,2926.060605768,7006.92308276,1392.9696968304,7728.97436634,3255.2424239169,81.92306810,8118.2727264609,3757.82051178,4969.6666661697,7105.38462143,2200.2121209921,4217.05128199,3997.0606056609,6810.64103106,4260.8181813921,3888.97435821,0,181.41024780,0,935.25640324,0,16.28204232,6140.0909084769,0,0,?
2018-07-08 16:22:41.889829,8385.38462414,287.9696969409,311.66665833,8299.6060597761,3495.38461379,2926.060605768,7006.92308276,1392.9696968304,7728.97436634,3255.2424239169,81.92306810,8118.2727264609,3757.82051178,4969.6666661697,7105.38462143,2200.2121209921,4217.05128199,3997.0606056609,6810.64103106,4260.8181813921,3888.97435821,0,181.41024780,0,935.25640324,0,16.28204232,6140.0909084769,0,0,?
2018-07-08 16:22:41.889829,5923.97436252,287.9696969409,3167.05127976,8299.6060597761,4283.07692315,2926.060605768,1460.38460948,1392.9696968304,1460.38460948,3255.2424239169,8319.74359836,8118.2727264609,4972.17948871,4969.6666661697,3659.35897311,2200.2121209921,2149.48717504,3997.0606056609,3528.71794719,4260.8181813921,4217.30769224,4178.3939389761,5202.94871997,0,3199.87179265,0,8090.00000813,6140.0909084769,0,0,?
2018-07-08 16:22:41.889829,3167.17948489,287.9696969409,6678.84615899,8299.6060597761,7335.38462192,2926.060605768,6285.00000431,1392.9696968304,3002.94871531,3255.2424239169,7663.33334056,8118.2727264609,4479.87179536,4969.6666661697,6088.07692697,2200.2121209921,4086.02564068,3997.0606056609,1329.87178869,4260.8181813921,3593.84615246,4178.3939389761,1756.92307165,3848.6969693121,4020.38461490,0,6284.87179918,6140.0909084769,0,0,?
2018-07-08 16:22:41.904789,2445.12820131,287.9696969409,6285.00000431,8299.6060597761,8123.07693128,2926.060605768,2018.33332861,1392.9696968304,3068.58974109,3255.2424239169,2674.74358641,8118.2727264609,5628.58974651,4969.6666661697,4939.35897582,2200.2121209921,3921.92307623,3997.0606056609,6482.56410729,4260.8181813921,2215.38461108,4178.3939389761,509.74358183,3848.6969693121,6186.53846564,5563.1212115649005,869.61537746,6140.0909084769,0,0,?
2018-07-08 16:22:41.904789,5398.84615628,287.9696969409,541.41024856,8299.6060597761,3232.82051067,2926.060605768,3823.33333243,1392.9696968304,1985.51281572,3255.2424239169,1854.23076416,8118.2727264609,6285.00000431,4969.6666661697,82.05127323,2200.2121209921,3462.43589577,3997.0606056609,5760.38461858,4030.0303026273,1854.35896929,5150.9999994849,7237.82051915,3848.6969693121,4545.51282114,5563.1212115649005,1132.17948058,6140.0909084769,0,0,?
2018-07-08 16:22:41.904789,508.71794080,287.9696969409,2937.30768953,8299.6060597761,5431.79487430,2926.060605768,7072.56410854,1392.9696968304,2313.71794462,3255.2424239169,114.74358099,8118.2727264609,5792.69231096,4969.6666661697,1197.94871149,2200.2121209921,3134.35897200,3997.0606056609,1329.74358356,4030.0303026273,6153.84615788,5150.9999994849,1198.97435252,4277.3030298753,5431.66666917,5563.1212115649005,7466.41026322,6140.0909084769,0,0,?
2018-07-08 16:22:41.924764,1165.12819860,287.9696969409,3068.58974109,8299.6060597761,5005.12820673,2926.060605768,5300.25641248,1392.9696968304,574.23076145,3255.2424239169,16.28204232,8118.2727264609,3790.64102467,4969.6666661697,5727.05128518,2200.2121209921,5234.87179696,3997.0606056609,7893.71795643,4030.0303026273,7040.00000591,5150.9999994849,7992.69231562,4277.3030298753,2609.10256063,5563.1212115649005,6810.00000542,6140.0909084769,0,0,?
2018-07-08 16:22:41.924764,1165.12819860,287.9696969409,3068.58974109,8299.6060597761,5005.12820673,2926.060605768,5300.25641248,1392.9696968304,574.23076145,3255.2424239169,16.28204232,8118.2727264609,3790.64102467,4969.6666661697,5727.05128518,2200.2121209921,5234.87179696,3997.0606056609,7893.71795643,4030.0303026273,7040.00000591,5150.9999994849,7992.69231562,4277.3030298753,2609.10256063,5563.1212115649005,6810.00000542,6140.0909084769,0,0,?
2018-07-08 16:22:41.924764,213.33332479,287.9696969409,2674.74358641,8299.6060597761,1099.48717282,2926.060605768,5168.97436092,1392.9696968304,2609.10256063,3255.2424239169,3462.43589577,8118.2727264609,5497.30769495,4969.6666661697,3429.61538288,2200.2121209921,7565.00000702,3997.0606056609,16.79486283,4030.0303026273,4644.10256494,5150.9999994849,2642.94871455,4277.3030298753,5891.15384963,5563.1212115649005,3265.51281843,6140.0909084769,0,0,?
2018-07-08 16:22:41.941690,7860.38462303,287.9696969409,4348.58974380,8299.6060597761,1624.61537906,2926.060605768,8155.64103391,1392.9696968304,3101.41025398,3255.2424239169,7499.23077611,8118.2727264609,5431.66666917,4969.6666661697,6941.41026211,2200.2121209921,2740.38461219,3997.0606056609,3364.35897249,4030.0303026273,4775.38461650,5150.9999994849,82.94870913,4277.3030298753,2510.64102196,5563.1212115649005,5464.35897693,6140.0909084769,0,0,?
2018-07-08 16:22:41.947703,2576.41025287,287.9696969409,5136.28205316,8299.6060597761,5464.61538719,2926.060605768,7958.71795657,1392.9696968304,4742.43589848,3255.2424239169,2116.79486728,8118.2727264609,6514.74359454,4969.6666661697,8319.87180349,2200.2121209921,5005.00000160,3997.0606056609,1887.43589244,4030.0303026273,6416.41026100,5150.9999994849,7368.97436558,4277.3030298753,5628.58974651,5563.1212115649005,1164.99999347,6140.0909084769,0,0,?
2018-07-08 16:22:41.953688,2806.15384310,287.9696969409,4840.89743715,8299.6060597761,6285.12820944,2926.060605768,7039.74359565,1392.9696968304,3921.92307623,3255.2424239169,771.15383879,8118.2727264609,6285.00000431,4969.6666661697,6416.28205587,2200.2121209921,6974.23077500,3997.0606056609,7401.15385283,4030.0303026273,6810.25641568,5150.9999994849,2216.15384185,4277.3030298753,4840.89743715,5563.1212115649005,246.02563255,6140.0909084769,0,0,?
2018-07-08 16:22:41.953688,114.87178612,287.9696969409,1361.92307081,8299.6060597761,1690.25640484,2926.060605768,7499.23077611,1392.9696968304,2379.35897040,3255.2424239169,8122.82052102,8118.2727264609,5333.20513050,4969.6666661697,4611.15384692,2200.2121209921,1361.92307081,3997.0606056609,1132.43589084,4030.0303026273,5563.07692586,5150.9999994849,3463.20512654,4277.3030298753,2346.53845751,5563.1212115649005,7761.79487923,6140.0909084769,0,0,?
2018-07-08 16:22:41.953688,114.87178612,287.9696969409,7925.89744368,8299.6060597761,7761.92308436,2926.060605768,7991.53846946,1392.9696968304,3560.89743444,3255.2424239169,3954.74358912,8118.2727264609,6613.20513321,4969.6666661697,2937.30768953,2200.2121209921,5694.10256716,3997.0606056609,5234.87179696,4030.0303026273,4283.07692315,5150.9999994849,936.02563401,4277.3030298753,5792.69231096,5563.1212115649005,3560.89743444,6140.0909084769,0,0,?
2018-07-08 16:22:41.961636,2018.46153374,287.9696969409,804.10255681,8299.6060597761,2904.61538177,2926.060605768,4086.02564068,1392.9696968304,4348.58974380,3255.2424239169,1854.23076416,8118.2727264609,5858.33333674,4969.6666661697,3298.33333132,2200.2121209921,1230.64101925,3997.0606056609,2018.46153374,4030.0303026273,6153.84615788,5150.9999994849,5432.30769481,4277.3030298753,4873.71795004,5563.1212115649005,1821.41025127,6140.0909084769,0,0,?
2018-07-08 16:22:41.969620,2018.46153374,287.9696969409,804.10255681,8299.6060597761,2904.61538177,2926.060605768,4086.02564068,1392.9696968304,4348.58974380,3255.2424239169,1854.23076416,8118.2727264609,5858.33333674,4969.6666661697,3298.33333132,2200.2121209921,1230.64101925,3997.0606056609,2018.46153374,4030.0303026273,6153.84615788,5150.9999994849,5432.30769481,4277.3030298753,4873.71795004,5563.1212115649005,1821.41025127,6140.0909084769,0,0,?
2018-07-08 16:22:41.969620,869.74358259,287.9696969409,7335.25641679,8299.6060597761,2116.92307241,2926.060605768,3823.46153756,1392.9696968304,3528.07692155,3255.2424239169,1230.64101925,8118.2727264609,5398.84615628,4969.6666661697,3889.10256334,2200.2121209921,1394.74358370,3997.0606056609,6810.12821055,4030.0303026273,3561.02563957,5150.9999994849,1231.28204489,4277.3030298753,4053.20512779,5563.1212115649005,1854.23076416,6140.0909084769,0,0,?
2018-07-08 16:22:41.983607,5759.87179807,287.9696969409,4512.69230825,8299.6060597761,3364.10256223,2926.060605768,2116.79486728,1392.9696968304,3002.94871531,3255.2424239169,475.76922278,8118.2727264609,3921.92307623,4969.6666661697,3265.51281843,2200.2121209921,902.43589035,3997.0606056609,3298.33333132,4030.0303026273,902.56409548,5150.9999994849,5563.46154124,4277.3030298753,968.07691613,5563.1212115649005,7696.15385345,6140.0909084769,0,0,?
2018-07-08 16:22:41.990558,4053.20512779,287.9696969409,2674.74358641,8299.6060597761,2116.92307241,2926.060605768,2609.10256063,1392.9696968304,5628.58974651,3255.2424239169,4348.58974380,8118.2727264609,5825.51282385,4969.6666661697,4184.48717935,2200.2121209921,2641.79486839,3997.0606056609,8057.17949524,4030.0303026273,7039.87180078,5150.9999994849,410.64101751,4277.3030298753,5497.30769495,5563.1212115649005,3856.28205045,6140.0909084769,0,0,?
2018-07-08 16:22:41.990558,2871.66666375,287.9696969409,836.79486457,8299.6060597761,1460.51281461,2926.060605768,4447.05128247,1392.9696968304,3068.58974109,3255.2424239169,7728.97436634,8118.2727264609,4611.15384692,4969.6666661697,4578.33333403,2200.2121209921,1821.28204614,3997.0606056609,6284.87179918,4030.0303026273,4939.35897582,5150.9999994849,3495.64102405,4277.3030298753,1197.82050636,5563.1212115649005,6842.82051831,6140.0909084769,0,0,?
2018-07-08 16:22:41.990558,4250.12820513,287.9696969409,4282.94871802,8299.6060597761,4939.48718095,2926.060605768,4184.48717935,1392.9696968304,3363.97435710,3255.2424239169,1329.10255792,8118.2727264609,4840.89743715,4969.6666661697,4447.05128247,2200.2121209921,1361.92307081,3997.0606056609,6219.23077340,4030.0303026273,2937.30768953,5150.9999994849,7401.15385283,4277.3030298753,2871.66666375,5563.1212115649005,1755.76922549,6140.0909084769,0,0,?
2018-07-08 16:22:42.036466,2280.89743173,287.9696969409,3462.43589577,8299.6060597761,3232.82051067,2926.060605768,213.20511966,1392.9696968304,3495.25640866,3255.2424239169,114.74358099,8118.2727264609,4348.58974380,4969.6666661697,5136.28205316,2200.2121209921,8254.10257258,3997.0606056609,4807.94871913,4030.0303026273,869.61537746,5150.9999994849,1821.66666153,4277.3030298753,7597.69231478,5563.1212115649005,6908.46154409,6140.0909084769,0,0,?
2018-07-08 16:22:42.036466,2280.89743173,287.9696969409,3462.43589577,8299.6060597761,3232.82051067,2926.060605768,213.20511966,1392.9696968304,3495.25640866,3255.2424239169,114.74358099,8118.2727264609,4348.58974380,4969.6666661697,5136.28205316,2200.2121209921,8254.10257258,3997.0606056609,4807.94871913,4030.0303026273,869.61537746,5150.9999994849,1821.66666153,4277.3030298753,7597.69231478,5563.1212115649005,6908.46154409,6140.0909084769,0,0,?
2018-07-08 16:22:42.036466,4742.43589848,287.9696969409,3199.87179265,8299.6060597761,1657.43589195,2926.060605768,2051.15384150,1392.9696968304,2609.10256063,3255.2424239169,114.74358099,8118.2727264609,4643.97435981,4969.6666661697,3462.43589577,2200.2121209921,4479.87179536,3997.0606056609,7335.12821166,4030.0303026273,1394.74358370,5150.9999994849,4414.35897471,4277.3030298753,8286.92308547,5563.1212115649005,7335.12821166,6140.0909084769,0,0,?
2018-07-08 16:22:42.036466,4742.43589848,287.9696969409,3199.87179265,8299.6060597761,1657.43589195,2926.060605768,2051.15384150,1392.9696968304,2609.10256063,3255.2424239169,114.74358099,8118.2727264609,4643.97435981,4969.6666661697,3462.43589577,2200.2121209921,4479.87179536,3997.0606056609,7335.12821166,4030.0303026273,1394.74358370,5150.9999994849,4414.35897471,4277.3030298753,8286.92308547,5563.1212115649005,7335.12821166,6140.0909084769,0,0,?
2018-07-08 16:22:42.036466,5366.02564339,287.9696969409,2707.56409930,8299.6060597761,1230.76922438,2926.060605768,5562.94872073,1392.9696968304,4578.33333403,3255.2424239169,2280.89743173,8118.2727264609,4742.43589848,4969.6666661697,5037.82051449,2200.2121209921,935.25640324,3997.0606056609,6448.97436363,4030.0303026273,2182.43589306,5150.9999994849,2379.35897040,4277.3030298753,3593.71794733,5563.1212115649005,2937.30768953,6140.0909084769,0,0,?
2018-07-08 16:22:42.036466,5366.02564339,287.9696969409,2707.56409930,8299.6060597761,1230.76922438,2926.060605768,5562.94872073,1392.9696968304,4578.33333403,3255.2424239169,2280.89743173,8118.2727264609,4742.43589848,4969.6666661697,5037.82051449,2200.2121209921,935.25640324,3997.0606056609,6448.97436363,4030.0303026273,2182.43589306,5150.9999994849,2379.35897040,4277.3030298753,3593.71794733,5563.1212115649005,2937.30768953,6140.0909084769,0,0,?
2018-07-08 16:22:42.036466,6777.17949253,287.9696969409,508.58973567,8299.6060597761,3757.82051178,2926.060605768,7367.94872455,1392.9696968304,3462.43589577,3255.2424239169,2838.84615086,8118.2727264609,4086.02564068,4969.6666661697,672.69230012,2200.2121209921,3593.58974220,3997.0606056609,6612.94872296,4030.0303026273,3659.23076798,5150.9999994849,2247.94871371,4277.3030298753,3528.07692155,5563.1212115649005,4315.76923091,6140.0909084769,0,0,?
2018-07-08 16:22:42.036466,6777.17949253,287.9696969409,508.58973567,8299.6060597761,3757.82051178,2926.060605768,7367.94872455,1392.9696968304,3462.43589577,3255.2424239169,2838.84615086,8118.2727264609,4086.02564068,4969.6666661697,672.69230012,2200.2121209921,3593.58974220,3997.0606056609,6612.94872296,4030.0303026273,3659.23076798,5150.9999994849,2247.94871371,4277.3030298753,3528.07692155,5563.1212115649005,4315.76923091,6140.0909084769,0,0,?
2018-07-08 16:22:42.036466,3856.28205045,287.9696969409,344.48717122,8299.6060597761,2641.92307352,2926.060605768,4348.58974380,1392.9696968304,3331.15384421,3255.2424239169,1099.35896769,8118.2727264609,2740.38461219,4969.6666661697,3495.25640866,2200.2121209921,3199.74358752,3997.0606056609,1361.79486568,4030.0303026273,3002.94871531,5150.9999994849,4939.23077069,4277.3030298753,2313.71794462,5563.1212115649005,1361.92307081,6140.0909084769,0,0,?
2018-07-08 16:22:42.037434,3856.28205045,287.9696969409,344.48717122,8299.6060597761,2641.92307352,2926.060605768,4348.58974380,1392.9696968304,3331.15384421,3255.2424239169,1099.35896769,8118.2727264609,2740.38461219,4969.6666661697,3495.25640866,2200.2121209921,3199.74358752,3997.0606056609,1361.79486568,4030.0303026273,3002.94871531,5150.9999994849,4939.23077069,4277.3030298753,2313.71794462,5563.1212115649005,1361.92307081,6140.0909084769,0,0,?
2018-07-08 16:22:42.037434,4282.94871802,287.9696969409,7597.69231478,8299.6060597761,1427.56409659,2926.060605768,3659.35897311,1392.9696968304,4512.69230825,3255.2424239169,2346.53845751,8118.2727264609,2838.84615086,4969.6666661697,1821.41025127,2200.2121209921,5825.38461872,3997.0606056609,1755.64102036,4030.0303026273,4447.05128247,5150.9999994849,4972.05128358,4277.3030298753,4250.12820513,5563.1212115649005,2412.17948329,6140.0909084769,0,0,?
2018-07-08 16:22:42.044419,1722.94871260,287.9696969409,7827.43590501,8299.6060597761,2215.25640595,2926.060605768,3528.07692155,1392.9696968304,1690.12819971,3255.2424239169,8155.64103391,8118.2727264609,7794.61539212,4969.6666661697,3823.46153756,2200.2121209921,6580.25641519,3997.0606056609,1296.15383990,4030.0303026273,6514.74359454,5150.9999994849,4053.07692266,4277.3030298753,278.84614544,5563.1212115649005,6547.43590230,6140.0909084769,0,0,?
2018-07-08 16:22:42.065022,5366.02564339,287.9696969409,2083.97435439,8299.6060597761,5037.82051449,2926.060605768,3954.74358912,1392.9696968304,1985.51281572,3255.2424239169,3823.46153756,8118.2727264609,672.69230012,4969.6666661697,6153.71795275,2200.2121209921,8024.35898235,3997.0606056609,6055.12820895,4030.0303026273,4512.82051338,5150.9999994849,6087.94872184,4277.3030298753,5530.12820784,5563.1212115649005,4020.38461490,6140.0909084769,0,0,?
2018-07-08 16:22:42.065022,968.20512126,287.9696969409,3068.58974109,8299.6060597761,5956.79487541,2926.060605768,4775.25641137,1392.9696968304,1329.10255792,3255.2424239169,8024.35898235,8118.2727264609,1329.10255792,4969.6666661697,5103.46154027,2200.2121209921,6120.89743986,3997.0606056609,1788.58973838,4030.0303026273,1329.35896818,5150.9999994849,7860.25641790,4277.3030298753,3954.74358912,5563.1212115649005,8024.35898235,6140.0909084769,0,0,?
2018-07-08 16:22:42.073003,2379.48717553,287.9696969409,3823.46153756,8299.6060597761,5201.92307894,2926.060605768,6449.10256876,1392.9696968304,1919.87178994,3255.2424239169,508.58973567,8118.2727264609,1066.53845480,4969.6666661697,4676.79487270,2200.2121209921,705.64101814,3997.0606056609,869.61537746,4030.0303026273,1854.48717442,5150.9999994849,278.84614544,4277.3030298753,4020.38461490,5563.1212115649005,705.51281301,6140.0909084769,0,0,?
2018-07-08 16:22:42.074010,1099.48717282,287.9696969409,7433.71795546,8299.6060597761,5497.30769495,2926.060605768,4742.43589848,1392.9696968304,3167.05127976,3255.2424239169,3429.61538288,8118.2727264609,1132.17948058,4969.6666661697,6711.66667188,2200.2121209921,6285.00000431,3997.0606056609,1197.82050636,4030.0303026273,1001.15383928,5150.9999994849,541.41024856,4277.3030298753,5398.84615628,5563.1212115649005,2313.71794462,6140.0909084769,0,0,?
2018-07-08 16:22:42.074010,5825.51282385,287.9696969409,4512.69230825,8299.6060597761,1558.84614815,2926.060605768,1493.20512237,1392.9696968304,4381.41025669,3255.2424239169,2477.82050907,8118.2727264609,1361.92307081,4969.6666661697,4282.94871802,2200.2121209921,5234.74359183,3997.0606056609,5530.00000271,4030.0303026273,4053.33333292,5150.9999994849,2051.02563637,4277.3030298753,4808.07692426,5563.1212115649005,3954.74358912,6140.0909084769,0,0,?
2018-07-08 16:22:42.074010,5825.51282385,287.9696969409,4512.69230825,8299.6060597761,1558.84614815,2926.060605768,1493.20512237,1392.9696968304,4381.41025669,3255.2424239169,2477.82050907,8118.2727264609,1361.92307081,4969.6666661697,4282.94871802,2200.2121209921,5234.74359183,3997.0606056609,5530.00000271,4030.0303026273,4053.33333292,5150.9999994849,2051.02563637,4277.3030298753,4808.07692426,5563.1212115649005,3954.74358912,6140.0909084769,0,0,?
2018-07-08 16:22:42.085979,3889.10256334,287.9696969409,3331.15384421,8299.6060597761,508.58973567,2926.060605768,7171.15385234,1392.9696968304,2707.56409930,3255.2424239169,114.74358099,8118.2727264609,8319.74359836,4969.6666661697,1263.46153214,2200.2121209921,803.97435168,3997.0606056609,2477.69230394,4030.0303026273,1099.48717282,5150.9999994849,738.20512077,4277.3030298753,1066.53845480,5563.1212115649005,213.20511966,6140.0909084769,0,0,?
2018-07-08 16:22:42.085979,2641.92307352,287.9696969409,3724.99999889,8299.6060597761,2576.28204774,2926.060605768,1526.15384039,1392.9696968304,3232.69230554,3255.2424239169,81.92306810,8118.2727264609,8352.56411125,4969.6666661697,7400.76923744,2200.2121209921,8057.17949524,3997.0606056609,3199.74358752,4030.0303026273,8188.58975193,5150.9999994849,869.48717233,4277.3030298753,672.69230012,5563.1212115649005,114.74358099,6140.0909084769,0,0,?
2018-07-08 16:22:42.093956,7827.30769989,287.9696969409,6547.43590230,8299.6060597761,803.84614655,2926.060605768,1493.20512237,1392.9696968304,1624.48717393,3255.2424239169,7105.38462143,8118.2727264609,7663.33334056,4969.6666661697,4972.05128358,2200.2121209921,7335.00000654,3997.0606056609,4151.41025621,4030.0303026273,8155.64103391,5150.9999994849,770.89742854,4277.3030298753,6383.33333785,5563.1212115649005,6022.30769606,6140.0909084769,0,0,?
2018-07-08 16:22:42.093956,7532.05128900,287.9696969409,7302.43590390,8299.6060597761,7171.15385234,2926.060605768,2904.61538177,1392.9696968304,3790.64102467,3255.2424239169,8155.64103391,8118.2727264609,2412.17948329,4969.6666661697,6875.76923633,2200.2121209921,3331.15384421,3997.0606056609,6908.46154409,4030.0303026273,4676.92307783,5150.9999994849,3035.64102307,4277.3030298753,1919.87178994,5563.1212115649005,442.94870989,6140.0909084769,0,0,?
2018-07-08 16:22:42.107938,7532.05128900,287.9696969409,7302.43590390,8299.6060597761,7171.15385234,2926.060605768,2904.61538177,1392.9696968304,3790.64102467,3255.2424239169,8155.64103391,8118.2727264609,2412.17948329,4969.6666661697,6875.76923633,2200.2121209921,3331.15384421,3997.0606056609,6908.46154409,4030.0303026273,4676.92307783,5150.9999994849,3035.64102307,4277.3030298753,1919.87178994,5563.1212115649005,442.94870989,6140.0909084769,0,0,?
2018-07-08 16:22:42.107938,7532.05128900,287.9696969409,7302.43590390,8299.6060597761,7171.15385234,2926.060605768,2904.61538177,1392.9696968304,3790.64102467,3255.2424239169,8155.64103391,8118.2727264609,2412.17948329,4969.6666661697,6875.76923633,2200.2121209921,3331.15384421,3997.0606056609,6908.46154409,4030.0303026273,4676.92307783,5150.9999994849,3035.64102307,4277.3030298753,1919.87178994,5563.1212115649005,442.94870989,6140.0909084769,0,0,?
2018-07-08 16:22:42.129849,7663.33334056,287.9696969409,3134.23076687,8299.6060597761,2444.99999618,2926.060605768,5431.66666917,1392.9696968304,4250.12820513,3255.2424239169,3528.07692155,8118.2727264609,1066.53845480,4969.6666661697,2904.48717664,2200.2121209921,7433.58975033,3997.0606056609,3068.46153596,4030.0303026273,7532.17949413,5150.9999994849,5989.35897805,4277.3030298753,4053.20512779,5563.1212115649005,4282.94871802,6140.0909084769,0,0,?
2018-07-08 16:22:42.129849,7663.33334056,287.9696969409,3134.23076687,8299.6060597761,2444.99999618,2926.060605768,5431.66666917,1392.9696968304,4250.12820513,3255.2424239169,3528.07692155,8118.2727264609,1066.53845480,4969.6666661697,2904.48717664,2200.2121209921,7433.58975033,3997.0606056609,3068.46153596,4030.0303026273,7532.17949413,5150.9999994849,5989.35897805,4277.3030298753,4053.20512779,5563.1212115649005,4282.94871802,6140.0909084769,0,0,?
2018-07-08 16:22:42.129849,8057.17949524,287.9696969409,3659.35897311,8299.6060597761,5694.23077229,2926.060605768,7302.43590390,1392.9696968304,2477.82050907,3255.2424239169,7728.97436634,8118.2727264609,1066.53845480,4969.6666661697,5858.33333674,2200.2121209921,213.20511966,3997.0606056609,2477.69230394,4030.0303026273,7499.35898124,5150.9999994849,6317.56410695,4277.3030298753,7532.05128900,5563.1212115649005,7269.48718588,6140.0909084769,0,0,?
2018-07-08 16:22:42.130850,114.74358099,287.9696969409,4808.07692426,8299.6060597761,4381.41025669,2926.060605768,6941.41026211,1392.9696968304,3954.74358912,3255.2424239169,2182.43589306,8118.2727264609,2871.66666375,4969.6666661697,6908.58974922,2200.2121209921,5628.58974651,3997.0606056609,3134.10256174,4030.0303026273,7302.43590390,5150.9999994849,5300.12820736,4277.3030298753,2773.20512508,5563.1212115649005,3560.89743444,6140.0909084769,0,0,?
2018-07-08 16:22:42.130850,1919.87178994,287.9696969409,7368.07692968,8299.6060597761,3232.69230554,2926.060605768,1066.66665993,1392.9696968304,3889.10256334,3255.2424239169,1690.12819971,8118.2727264609,2871.66666375,4969.6666661697,7565.00000702,2200.2121209921,1263.58973727,3997.0606056609,6908.46154409,4030.0303026273,2510.76922709,5150.9999994849,6284.74359406,4277.3030298753,2970.12820242,5563.1212115649005,1460.38460948,6140.0909084769,0,0,?
2018-07-08 16:22:42.144809,3331.15384421,287.9696969409,7860.38462303,8299.6060597761,3954.74358912,2926.060605768,377.43588924,1392.9696968304,1722.94871260,3255.2424239169,1296.28204503,8118.2727264609,1460.38460948,4969.6666661697,5562.94872073,2200.2121209921,8254.23077771,3997.0606056609,6022.30769606,4030.0303026273,3725.12820402,5150.9999994849,4906.28205268,4277.3030298753,1427.56409659,5563.1212115649005,672.69230012,6140.0909084769,0,0,?
2018-07-08 16:22:42.178295,1854.23076416,287.9696969409,5234.74359183,8299.6060597761,3856.28205045,2926.060605768,3298.33333132,1392.9696968304,3790.64102467,3255.2424239169,3921.92307623,8118.2727264609,2477.82050907,4969.6666661697,4053.20512779,2200.2121209921,5267.56410472,3997.0606056609,1361.79486568,4030.0303026273,410.25640213,5150.9999994849,1066.28204455,4277.3030298753,5431.66666917,5563.1212115649005,5169.10256605,6140.0909084769,0,0,?
2018-07-08 16:22:42.178295,5628.58974651,287.9696969409,6088.07692697,8299.6060597761,3134.23076687,2926.060605768,4250.25641026,1392.9696968304,5366.02564339,3255.2424239169,2871.66666375,8118.2727264609,3035.76922820,4969.6666661697,8352.69231638,2200.2121209921,1558.97435328,3997.0606056609,8188.46154680,4030.0303026273,4414.35897471,5150.9999994849,6087.82051672,4277.3030298753,4250.12820513,5563.1212115649005,3363.97435710,6140.0909084769,0,0,?
2018-07-08 16:22:42.200236,5792.69231096,5431.2424236993,5234.74359183,8299.6060597761,475.76922278,2926.060605768,2313.84614975,1392.9696968304,3757.82051178,3255.2424239169,2412.17948329,8118.2727264609,2838.84615086,4969.6666661697,3790.64102467,2200.2121209921,7433.71795546,3997.0606056609,4151.53846133,4030.0303026273,2281.02563686,5150.9999994849,4217.05128199,4277.3030298753,3626.53846022,5563.1212115649005,3199.87179265,6140.0909084769,0,0,?
2018-07-08 16:22:42.200236,3462.43589577,5431.2424236993,2740.38461219,4194.8787874593,7991.53846946,2926.060605768,6744.48718477,1392.9696968304,3396.79486999,3255.2424239169,8352.56411125,8118.2727264609,1460.38460948,4969.6666661697,2116.79486728,2200.2121209921,2149.61538017,3997.0606056609,541.28204343,4030.0303026273,7630.64103280,5150.9999994849,1853.97435391,4277.3030298753,1394.74358370,5563.1212115649005,508.58973567,6140.0909084769,0,0,?
2018-07-08 16:22:42.200236,5497.30769495,5431.2424236993,2215.25640595,4194.8787874593,7499.23077611,2926.060605768,49.23076034,1392.9696968304,6022.43590119,3255.2424239169,4447.05128247,8118.2727264609,3167.05127976,4969.6666661697,1854.23076416,2200.2121209921,1788.58973838,3997.0606056609,508.46153054,4030.0303026273,6383.46154298,5150.9999994849,2214.99999570,4277.3030298753,6514.74359454,5563.1212115649005,4512.69230825,6453.3030296577,0,0,?
2018-07-08 16:22:42.200236,5497.30769495,5431.2424236993,2215.25640595,4194.8787874593,7499.23077611,2926.060605768,49.23076034,1392.9696968304,6022.43590119,3255.2424239169,4447.05128247,8118.2727264609,3167.05127976,4969.6666661697,1854.23076416,2200.2121209921,1788.58973838,3997.0606056609,508.46153054,4030.0303026273,6383.46154298,5150.9999994849,2214.99999570,4277.3030298753,6514.74359454,5563.1212115649005,4512.69230825,6453.3030296577,0,0,?
2018-07-08 16:22:42.200236,6547.56410743,5431.2424236993,2641.92307352,4194.8787874593,7072.56410854,4755.3636358881,1132.30768571,1392.9696968304,4184.48717935,3255.2424239169,1066.53845480,8118.2727264609,1558.84614815,4969.6666661697,1132.17948058,2200.2121209921,5005.00000160,3997.0606056609,442.82050476,4030.0303026273,5366.02564339,5150.9999994849,2116.53845703,4277.3030298753,2248.07691884,5563.1212115649005,7925.89744368,6453.3030296577,0,0,?
2018-07-08 16:22:42.224204,4611.15384692,5431.2424236993,2313.71794462,4194.8787874593,8155.64103391,4755.3636358881,1723.07691773,5233.4242419009,2838.84615086,5019.1212116193,442.94870989,4442.1515147073005,2477.82050907,4969.6666661697,6908.58974922,2200.2121209921,5333.20513050,3997.0606056609,7794.48718700,4030.0303026273,1887.05127705,5150.9999994849,180.12819652,4277.3030298753,8352.56411125,5563.1212115649005,7466.41026322,6453.3030296577,0,0,?
2018-07-08 16:22:42.224204,6974.23077500,5431.2424236993,4020.38461490,4194.8787874593,7860.25641790,4755.3636358881,4283.07692315,5233.4242419009,4939.35897582,5019.1212116193,4545.51282114,4442.1515147073005,3889.10256334,6502.7575751073,6153.71795275,2200.2121209921,7893.20513592,3997.0606056609,1132.05127545,4030.0303026273,3068.58974109,5150.9999994849,2280.64102148,4277.3030298753,4742.43589848,5563.1212115649005,5005.00000160,6453.3030296577,0,0,?
2018-07-08 16:22:42.239164,6974.23077500,5431.2424236993,4020.38461490,4194.8787874593,7860.25641790,4755.3636358881,4283.07692315,5233.4242419009,4939.35897582,5019.1212116193,4545.51282114,4442.1515147073005,3889.10256334,6502.7575751073,6153.71795275,2200.2121209921,7893.20513592,3997.0606056609,1132.05127545,4030.0303026273,3068.58974109,5150.9999994849,2280.64102148,4277.3030298753,4742.43589848,5563.1212115649005,5005.00000160,6453.3030296577,0,0,?
2018-07-08 16:22:42.246148,6974.23077500,5431.2424236993,4020.38461490,4194.8787874593,7860.25641790,4755.3636358881,4283.07692315,5233.4242419009,4939.35897582,5019.1212116193,4545.51282114,4442.1515147073005,3889.10256334,6502.7575751073,6153.71795275,2200.2121209921,7893.20513592,3997.0606056609,1132.05127545,4030.0303026273,3068.58974109,5150.9999994849,2280.64102148,4277.3030298753,4742.43589848,5563.1212115649005,5005.00000160,6453.3030296577,0,0,?
2018-07-08 16:22:42.269053,5103.46154027,5431.2424236993,3396.79486999,4194.8787874593,771.15383879,4755.3636358881,4841.02564228,5233.4242419009,3002.94871531,5019.1212116193,8221.28205969,4442.1515147073005,2248.07691884,6502.7575751073,5628.58974651,4128.9393935265,7138.33333945,3997.0606056609,2018.20512348,4030.0303026273,1427.56409659,5150.9999994849,2608.84615038,4277.3030298753,278.84614544,5563.1212115649005,7630.51282767,6453.3030296577,0,0,?
2018-07-08 16:22:42.269053,5464.48718206,5431.2424236993,344.48717122,4194.8787874593,2806.02563797,4755.3636358881,8155.76923904,5233.4242419009,3560.89743444,5019.1212116193,1558.84614815,4442.1515147073005,2313.71794462,6502.7575751073,6449.10256876,4128.9393935265,6646.02564610,5002.6363631361,3856.15384532,4030.0303026273,1821.41025127,5150.9999994849,4085.76923043,4277.3030298753,2018.33332861,5563.1212115649005,1952.69230283,6453.3030296577,0,0,?
2018-07-08 16:22:42.269053,6514.74359454,5431.2424236993,1919.87178994,4194.8787874593,3921.92307623,4755.3636358881,4676.79487270,5233.4242419009,4414.23076958,5019.1212116193,2773.20512508,4442.1515147073005,2477.82050907,6502.7575751073,5694.23077229,4128.9393935265,7893.20513592,5002.6363631361,7269.48718588,5612.5757570145,5398.84615628,5150.9999994849,6383.20513273,4277.3030298753,3495.25640866,5563.1212115649005,3068.58974109,6453.3030296577,0,0,?
2018-07-08 16:22:42.290000,3987.56410201,5431.2424236993,3889.10256334,4194.8787874593,2149.61538017,4755.3636358881,6219.35897853,5233.4242419009,2215.25640595,5019.1212116193,7564.87180189,4442.1515147073005,968.07691613,6502.7575751073,2313.71794462,4128.9393935265,607.17947947,5002.6363631361,7597.69231478,5612.5757570145,5562.94872073,3799.2424238625,5759.61538782,4277.3030298753,8319.74359836,5563.1212115649005,7597.69231478,6453.3030296577,0,0,?
2018-07-08 16:22:42.290000,3002.94871531,5431.2424236993,3101.41025398,4194.8787874593,3921.92307623,4755.3636358881,8090.12821326,5233.4242419009,4020.38461490,5019.1212116193,705.51281301,4442.1515147073005,2116.79486728,6502.7575751073,3692.17948600,4128.9393935265,2215.25640595,5002.6363631361,1788.46153325,4574.0303025729,2083.97435439,3799.2424238625,1197.56409611,5645.5454539809,2444.99999618,3947.6060602113002,1919.87178994,6453.3030296577,0,0,?
2018-07-08 16:22:42.297975,4676.79487270,5431.2424236993,2543.46153485,4194.8787874593,672.69230012,4755.3636358881,2018.46153374,5233.4242419009,5366.02564339,5019.1212116193,2838.84615086,4442.1515147073005,2313.71794462,6502.7575751073,1000.89742902,4128.9393935265,5628.58974651,5002.6363631361,3068.46153596,4574.0303025729,5366.02564339,5645.5454539809,2904.23076639,5645.5454539809,4840.89743715,3947.6060602113002,2641.92307352,6453.3030296577,0,0,?
2018-07-08 16:22:42.298973,836.79486457,5431.2424236993,410.12819700,4194.8787874593,968.07691613,4755.3636358881,377.43588924,5233.4242419009,4840.89743715,5019.1212116193,3331.15384421,4442.1515147073005,2806.02563797,6502.7575751073,3363.97435710,4128.9393935265,8352.56411125,5002.6363631361,1394.61537857,4574.0303025729,3232.69230554,5645.5454539809,541.15383831,5645.5454539809,4578.33333403,3947.6060602113002,4545.51282114,6453.3030296577,0,0,?
2018-07-08 16:22:42.311938,2346.53845751,5431.2424236993,1033.71794191,4194.8787874593,8385.38462414,4755.3636358881,82.05127323,5233.4242419009,3659.35897311,5019.1212116193,246.02563255,4442.1515147073005,1690.12819971,6502.7575751073,2280.89743173,4128.9393935265,213.33332479,5002.6363631361,5726.92308005,4574.0303025729,8287.05129060,5645.5454539809,5431.41025892,5645.5454539809,1657.30768682,3947.6060602113002,935.25640324,6453.3030296577,0,0,?
2018-07-08 16:22:42.311938,2346.53845751,5431.2424236993,1033.71794191,4194.8787874593,8385.38462414,4755.3636358881,82.05127323,5233.4242419009,3659.35897311,5019.1212116193,246.02563255,4442.1515147073005,1690.12819971,6502.7575751073,2280.89743173,4128.9393935265,213.33332479,5002.6363631361,5726.92308005,4574.0303025729,8287.05129060,5645.5454539809,5431.41025892,5645.5454539809,1657.30768682,3947.6060602113002,935.25640324,6453.3030296577,0,0,?
2018-07-08 16:22:42.311938,2346.53845751,5431.2424236993,1033.71794191,4194.8787874593,8385.38462414,4755.3636358881,82.05127323,5233.4242419009,3659.35897311,5019.1212116193,246.02563255,4442.1515147073005,1690.12819971,6502.7575751073,2280.89743173,4128.9393935265,213.33332479,5002.6363631361,5726.92308005,4574.0303025729,8287.05129060,5645.5454539809,5431.41025892,5645.5454539809,1657.30768682,3947.6060602113002,935.25640324,6453.3030296577,0,0,?
2018-07-08 16:22:42.311938,2346.53845751,5431.2424236993,1033.71794191,4194.8787874593,8385.38462414,4755.3636358881,82.05127323,5233.4242419009,3659.35897311,5019.1212116193,246.02563255,4442.1515147073005,1690.12819971,6502.7575751073,2280.89743173,4128.9393935265,213.33332479,5002.6363631361,5726.92308005,4574.0303025729,8287.05129060,5645.5454539809,5431.41025892,5645.5454539809,1657.30768682,3947.6060602113002,935.25640324,6453.3030296577,0,0,?
2018-07-08 16:22:42.326929,2346.53845751,5431.2424236993,1033.71794191,4194.8787874593,8385.38462414,4755.3636358881,82.05127323,5233.4242419009,3659.35897311,5019.1212116193,246.02563255,4442.1515147073005,1690.12819971,6502.7575751073,2280.89743173,4128.9393935265,213.33332479,5002.6363631361,5726.92308005,4574.0303025729,8287.05129060,5645.5454539809,5431.41025892,5645.5454539809,1657.30768682,3947.6060602113002,935.25640324,6453.3030296577,0,0,?
2018-07-08 16:22:42.326929,2871.66666375,5431.2424236993,8286.92308547,4194.8787874593,1624.48717393,4755.3636358881,7039.87180078,5233.4242419009,3232.69230554,5019.1212116193,2904.48717664,4442.1515147073005,4020.38461490,6502.7575751073,3593.71794733,4128.9393935265,1952.82050796,5002.6363631361,7794.61539212,4574.0303025729,804.10255681,5645.5454539809,6547.30769718,5645.5454539809,6022.43590119,3947.6060602113002,3134.23076687,6453.3030296577,0,0,?
2018-07-08 16:22:42.350835,3167.05127976,5431.2424236993,2018.33332861,4194.8787874593,3692.17948600,4755.3636358881,6416.28205587,5233.4242419009,902.43589035,5019.1212116193,7400.76923744,4442.1515147073005,2543.46153485,6502.7575751073,7794.74359725,4128.9393935265,4447.17948760,5002.6363631361,2379.35897040,4574.0303025729,4283.07692315,5645.5454539809,2018.20512348,5645.5454539809,3035.76922820,3947.6060602113002,6941.28205698,6453.3030296577,0,0,?
2018-07-08 16:22:42.358814,4118.84615357,5431.2424236993,3298.33333132,4194.8787874593,2510.64102196,4755.3636358881,6285.00000431,5233.4242419009,2674.74358641,5019.1212116193,2116.79486728,4442.1515147073005,2707.56409930,6502.7575751073,6941.41026211,4128.9393935265,6055.38461921,5002.6363631361,2149.61538017,4574.0303025729,4676.92307783,5645.5454539809,2051.02563637,5645.5454539809,6449.10256876,3947.6060602113002,3889.10256334,6453.3030296577,0,0,?
2018-07-08 16:22:42.359812,114.74358099,5431.2424236993,508.58973567,4194.8787874593,2149.61538017,4755.3636358881,4282.94871802,5233.4242419009,1887.05127705,5019.1212116193,8385.38462414,4442.1515147073005,2149.61538017,6502.7575751073,5595.76923362,4128.9393935265,3659.48717824,5002.6363631361,114.74358099,4574.0303025729,1460.51281461,5645.5454539809,6711.41026163,5645.5454539809,2576.28204774,3947.6060602113002,114.74358099,6453.3030296577,0,0,?
2018-07-08 16:22:42.359812,5300.25641248,5431.2424236993,7072.56410854,4194.8787874593,3757.82051178,4755.3636358881,1624.48717393,5233.4242419009,1361.92307081,5019.1212116193,705.51281301,4442.1515147073005,2477.82050907,6502.7575751073,7072.69231367,4128.9393935265,8057.30770037,5002.6363631361,6974.10256987,4574.0303025729,7138.33333945,5645.5454539809,3954.48717887,5645.5454539809,1493.20512237,3947.6060602113002,1394.74358370,6453.3030296577,0,0,?
2018-07-08 16:22:42.384709,4282.82051289,5431.2424236993,7991.53846946,4194.8787874593,1854.23076416,4755.3636358881,1296.28204503,5233.4242419009,2543.46153485,5019.1212116193,3528.07692155,4442.1515147073005,3429.61538288,6502.7575751073,5464.48718206,4128.9393935265,5333.20513050,5002.6363631361,4578.20512890,4574.0303025729,2182.43589306,5645.5454539809,967.82050588,5645.5454539809,4250.12820513,3947.6060602113002,4775.25641137,6453.3030296577,0,0,?
2018-07-08 16:22:42.384709,5070.51282225,5431.2424236993,607.05127434,4194.8787874593,2116.79486728,4755.3636358881,6908.58974922,5233.4242419009,3659.35897311,5019.1212116193,1099.35896769,4442.1515147073005,2970.12820242,6502.7575751073,4545.51282114,4128.9393935265,508.58973567,5002.6363631361,3429.48717775,4574.0303025729,4020.38461490,5645.5454539809,2576.02563749,5645.5454539809,3035.76922820,3947.6060602113002,442.94870989,6453.3030296577,0,0,?
2018-07-08 16:22:42.384709,7138.20513432,5431.2424236993,2412.17948329,4194.8787874593,2740.38461219,4755.3636358881,5267.56410472,5233.4242419009,4479.87179536,5019.1212116193,2904.48717664,4442.1515147073005,4118.84615357,6502.7575751073,3856.28205045,4128.9393935265,2215.25640595,5002.6363631361,3724.87179376,4574.0303025729,5070.64102738,5645.5454539809,1558.58973790,5645.5454539809,5759.87179807,3947.6060602113002,4512.69230825,6453.3030296577,0,0,?
2018-07-08 16:22:42.391659,7138.20513432,5431.2424236993,2412.17948329,4194.8787874593,2740.38461219,4755.3636358881,5267.56410472,5233.4242419009,4479.87179536,5019.1212116193,2904.48717664,4442.1515147073005,4118.84615357,6502.7575751073,3856.28205045,4128.9393935265,2215.25640595,5002.6363631361,3724.87179376,4574.0303025729,5070.64102738,5645.5454539809,1558.58973790,5645.5454539809,5759.87179807,3947.6060602113002,4512.69230825,6453.3030296577,0,0,?
2018-07-08 16:22:42.405654,7138.20513432,5431.2424236993,2412.17948329,4194.8787874593,2740.38461219,4755.3636358881,5267.56410472,5233.4242419009,4479.87179536,5019.1212116193,2904.48717664,4442.1515147073005,4118.84615357,6502.7575751073,3856.28205045,4128.9393935265,2215.25640595,5002.6363631361,3724.87179376,4574.0303025729,5070.64102738,5645.5454539809,1558.58973790,5645.5454539809,5759.87179807,3947.6060602113002,4512.69230825,6453.3030296577,0,0,?
2018-07-08 16:22:42.413605,7138.20513432,5431.2424236993,2412.17948329,4194.8787874593,2740.38461219,4755.3636358881,5267.56410472,5233.4242419009,4479.87179536,5019.1212116193,2904.48717664,4442.1515147073005,4118.84615357,6502.7575751073,3856.28205045,4128.9393935265,2215.25640595,5002.6363631361,3724.87179376,4574.0303025729,5070.64102738,5645.5454539809,1558.58973790,5645.5454539809,5759.87179807,3947.6060602113002,4512.69230825,6453.3030296577,0,0,?
2018-07-08 16:22:42.413605,6284.87179918,5431.2424236993,2051.15384150,4194.8787874593,3265.51281843,4755.3636358881,3002.94871531,5233.4242419009,4447.05128247,5019.1212116193,1361.92307081,4442.1515147073005,2280.89743173,6502.7575751073,6383.46154298,4128.9393935265,5398.84615628,5002.6363631361,6941.28205698,4574.0303025729,5169.10256605,5645.5454539809,4643.71794956,5645.5454539809,3560.89743444,3947.6060602113002,1558.84614815,6453.3030296577,0,0,?
2018-07-08 16:22:42.428562,8155.64103391,5431.2424236993,7039.74359565,4194.8787874593,344.48717122,4755.3636358881,1788.58973838,5233.4242419009,2904.48717664,5019.1212116193,3495.25640866,4442.1515147073005,2904.48717664,6502.7575751073,2018.33332861,4128.9393935265,4282.94871802,5002.6363631361,1197.82050636,4574.0303025729,6481.92308165,5645.5454539809,6186.28205539,5645.5454539809,6350.64103009,3947.6060602113002,5037.82051449,6453.3030296577,0,0,?
2018-07-08 16:22:42.434558,2313.71794462,5431.2424236993,1854.23076416,4194.8787874593,1493.20512237,4755.3636358881,4118.84615357,5233.4242419009,4151.66666646,5019.1212116193,2740.38461219,4442.1515147073005,3429.61538288,6502.7575751073,3331.15384421,4128.9393935265,607.17947947,5002.6363631361,771.15383879,4574.0303025729,1460.51281461,5645.5454539809,7531.92308388,5645.5454539809,4873.71795004,3947.6060602113002,3167.05127976,6453.3030296577,0,0,?
2018-07-08 16:22:42.434558,3002.94871531,5431.2424236993,4381.41025669,4194.8787874593,3856.28205045,4755.3636358881,5923.97436252,5233.4242419009,4381.41025669,5019.1212116193,1854.23076416,4442.1515147073005,4086.02564068,6502.7575751073,4709.61538559,4128.9393935265,147.69229901,5002.6363631361,1394.74358370,4574.0303025729,2412.30768842,5645.5454539809,7269.35898076,5645.5454539809,5201.92307894,3947.6060602113002,2083.97435439,6453.3030296577,0,0,?
2018-07-08 16:22:42.458481,1230.64101925,5431.2424236993,2871.66666375,4194.8787874593,3659.35897311,4755.3636358881,4118.84615357,5233.4242419009,3495.25640866,5019.1212116193,8024.35898235,4442.1515147073005,2576.28204774,6502.7575751073,5530.12820784,4128.9393935265,6514.74359454,5002.6363631361,1427.56409659,4574.0303025729,2215.38461108,5645.5454539809,7236.53846787,5645.5454539809,2083.97435439,3947.6060602113002,8254.10257258,6453.3030296577,0,0,?
2018-07-08 16:22:42.458481,1690.12819971,5431.2424236993,2707.56409930,4194.8787874593,1000.89742902,4755.3636358881,4118.84615357,5233.4242419009,6153.71795275,5019.1212116193,3363.97435710,4442.1515147073005,4053.20512779,6502.7575751073,3823.46153756,4128.9393935265,6416.28205587,5002.6363631361,1427.56409659,4574.0303025729,1296.41025016,5645.5454539809,7138.07692920,5645.5454539809,5956.79487541,3947.6060602113002,4676.79487270,6453.3030296577,0,0,?
2018-07-08 16:22:42.472444,1690.12819971,5431.2424236993,2707.56409930,4194.8787874593,1000.89742902,4755.3636358881,4118.84615357,5233.4242419009,6153.71795275,5019.1212116193,3363.97435710,4442.1515147073005,4053.20512779,6502.7575751073,3823.46153756,4128.9393935265,6416.28205587,5002.6363631361,1427.56409659,4574.0303025729,1296.41025016,5645.5454539809,7138.07692920,5645.5454539809,5956.79487541,3947.6060602113002,4676.79487270,6453.3030296577,0,0,?
2018-07-08 16:22:42.503362,1690.12819971,5431.2424236993,2707.56409930,4194.8787874593,1000.89742902,4755.3636358881,4118.84615357,5233.4242419009,6153.71795275,5019.1212116193,3363.97435710,4442.1515147073005,4053.20512779,6502.7575751073,3823.46153756,4128.9393935265,6416.28205587,5002.6363631361,1427.56409659,4574.0303025729,1296.41025016,5645.5454539809,7138.07692920,5645.5454539809,5956.79487541,3947.6060602113002,4676.79487270,6453.3030296577,0,0,?
2018-07-08 16:22:42.526301,1690.12819971,5431.2424236993,2707.56409930,4194.8787874593,1000.89742902,4755.3636358881,4118.84615357,5233.4242419009,6153.71795275,5019.1212116193,3363.97435710,4442.1515147073005,4053.20512779,6502.7575751073,3823.46153756,4128.9393935265,6416.28205587,5002.6363631361,1427.56409659,4574.0303025729,1296.41025016,5645.5454539809,7138.07692920,5645.5454539809,5956.79487541,3947.6060602113002,4676.79487270,6453.3030296577,0,0,?
2018-07-08 16:22:42.526301,1690.12819971,5431.2424236993,2707.56409930,4194.8787874593,1000.89742902,4755.3636358881,4118.84615357,5233.4242419009,6153.71795275,5019.1212116193,3363.97435710,4442.1515147073005,4053.20512779,6502.7575751073,3823.46153756,4128.9393935265,6416.28205587,5002.6363631361,1427.56409659,4574.0303025729,1296.41025016,5645.5454539809,7138.07692920,5645.5454539809,5956.79487541,3947.6060602113002,4676.79487270,6453.3030296577,0,0,?
2018-07-08 16:22:42.527299,2248.07691884,5431.2424236993,4447.05128247,4194.8787874593,1460.38460948,4755.3636358881,7958.84616170,5233.4242419009,5005.00000160,5019.1212116193,8221.28205969,4442.1515147073005,2937.30768953,6502.7575751073,2543.46153485,4128.9393935265,6252.17949142,5002.6363631361,1000.89742902,4574.0303025729,2642.05127865,5645.5454539809,7039.61539053,5645.5454539809,2379.35897040,3947.6060602113002,7203.84616010,6453.3030296577,0,0,?
2018-07-08 16:22:42.527299,2806.02563797,5431.2424236993,2182.43589306,4194.8787874593,3167.05127976,4755.3636358881,4053.20512779,5233.4242419009,3199.87179265,5019.1212116193,8090.00000813,4442.1515147073005,2379.35897040,6502.7575751073,3823.46153756,4128.9393935265,49.10255521,5002.6363631361,4643.84615468,4574.0303025729,278.97435057,5645.5454539809,4381.15384644,5645.5454539809,1427.56409659,3947.6060602113002,8254.10257258,6453.3030296577,0,0,?
2018-07-08 16:22:42.540263,2083.97435439,5431.2424236993,1952.69230283,4194.8787874593,2641.92307352,4755.3636358881,5825.51282385,5233.4242419009,5005.00000160,5019.1212116193,3724.99999889,4442.1515147073005,4217.30769224,6502.7575751073,1132.17948058,4128.9393935265,6908.46154409,5002.6363631361,1460.25640435,4574.0303025729,6219.35897853,5645.5454539809,1558.58973790,5645.5454539809,5792.69231096,3947.6060602113002,4775.25641137,6453.3030296577,0,0,?
2018-07-08 16:22:42.540263,2083.97435439,5431.2424236993,1952.69230283,4194.8787874593,2641.92307352,4755.3636358881,5825.51282385,5233.4242419009,5005.00000160,5019.1212116193,3724.99999889,4442.1515147073005,4217.30769224,6502.7575751073,1132.17948058,4128.9393935265,6908.46154409,5002.6363631361,1460.25640435,4574.0303025729,6219.35897853,5645.5454539809,1558.58973790,5645.5454539809,5792.69231096,3947.6060602113002,4775.25641137,6453.3030296577,0,0,?
2018-07-08 16:22:42.554226,2083.97435439,5431.2424236993,1952.69230283,4194.8787874593,2641.92307352,4755.3636358881,5825.51282385,5233.4242419009,5005.00000160,5019.1212116193,3724.99999889,4442.1515147073005,4217.30769224,6502.7575751073,1132.17948058,4128.9393935265,6908.46154409,5002.6363631361,1460.25640435,4574.0303025729,6219.35897853,5645.5454539809,1558.58973790,5645.5454539809,5792.69231096,3947.6060602113002,4775.25641137,6453.3030296577,0,0,?
2018-07-08 16:22:42.554226,1099.35896769,5431.2424236993,4512.69230825,4194.8787874593,5103.46154027,4755.3636358881,82.05127323,5233.4242419009,3692.17948600,5019.1212116193,8286.92308547,4442.1515147073005,2838.84615086,6502.7575751073,4840.89743715,4128.9393935265,1558.84614815,5002.6363631361,3002.82051018,4574.0303025729,7400.89744257,5645.5454539809,3626.28204997,5645.5454539809,1197.82050636,3947.6060602113002,7663.33334056,6453.3030296577,0,0,?
2018-07-08 16:22:42.554226,3298.33333132,5431.2424236993,7105.51282656,4194.8787874593,7171.15385234,4755.3636358881,8155.76923904,5233.4242419009,5398.84615628,5019.1212116193,1690.12819971,4442.1515147073005,3823.46153756,6502.7575751073,278.97435057,4128.9393935265,6678.84615899,5002.6363631361,7039.74359565,4574.0303025729,1165.12819860,5645.5454539809,114.61537586,5645.5454539809,3757.82051178,3947.6060602113002,2477.82050907,6453.3030296577,0,0,?
2018-07-08 16:22:42.554226,6613.07692808,5431.2424236993,968.07691613,4194.8787874593,541.41024856,4755.3636358881,6120.89743986,5233.4242419009,1755.76922549,5019.1212116193,6711.53846675,4442.1515147073005,2018.33332861,6502.7575751073,1394.74358370,4128.9393935265,5661.41025940,5002.6363631361,3035.76922820,4574.0303025729,5989.61538830,5645.5454539809,8286.79488035,5645.5454539809,442.94870989,3947.6060602113002,7466.41026322,6453.3030296577,0,0,?
2018-07-08 16:22:42.573176,6613.07692808,5431.2424236993,968.07691613,4194.8787874593,541.41024856,4755.3636358881,6120.89743986,5233.4242419009,1755.76922549,5019.1212116193,6711.53846675,4442.1515147073005,2018.33332861,6502.7575751073,1394.74358370,4128.9393935265,5661.41025940,5002.6363631361,3035.76922820,4574.0303025729,5989.61538830,5645.5454539809,8286.79488035,5645.5454539809,442.94870989,3947.6060602113002,7466.41026322,6453.3030296577,0,0,?
2018-07-08 16:22:42.573176,6613.07692808,5431.2424236993,968.07691613,4194.8787874593,541.41024856,4755.3636358881,6120.89743986,5233.4242419009,1755.76922549,5019.1212116193,6711.53846675,4442.1515147073005,2018.33332861,6502.7575751073,1394.74358370,4128.9393935265,5661.41025940,5002.6363631361,3035.76922820,4574.0303025729,5989.61538830,5645.5454539809,8286.79488035,5645.5454539809,442.94870989,3947.6060602113002,7466.41026322,6453.3030296577,0,0,?
2018-07-08 16:22:42.573176,6613.07692808,5431.2424236993,968.07691613,4194.8787874593,541.41024856,4755.3636358881,6120.89743986,5233.4242419009,1755.76922549,5019.1212116193,6711.53846675,4442.1515147073005,2018.33332861,6502.7575751073,1394.74358370,4128.9393935265,5661.41025940,5002.6363631361,3035.76922820,4574.0303025729,5989.61538830,5645.5454539809,8286.79488035,5645.5454539809,442.94870989,3947.6060602113002,7466.41026322,6453.3030296577,0,0,?
2018-07-08 16:22:42.580157,6613.07692808,5431.2424236993,968.07691613,4194.8787874593,541.41024856,4755.3636358881,6120.89743986,5233.4242419009,1755.76922549,5019.1212116193,6711.53846675,4442.1515147073005,2018.33332861,6502.7575751073,1394.74358370,4128.9393935265,5661.41025940,5002.6363631361,3035.76922820,4574.0303025729,5989.61538830,5645.5454539809,8286.79488035,5645.5454539809,442.94870989,3947.6060602113002,7466.41026322,6453.3030296577,0,0,?
2018-07-08 16:22:42.599106,6613.07692808,5431.2424236993,968.07691613,4194.8787874593,541.41024856,4755.3636358881,6120.89743986,5233.4242419009,1755.76922549,5019.1212116193,6711.53846675,4442.1515147073005,2018.33332861,6502.7575751073,1394.74358370,4128.9393935265,5661.41025940,5002.6363631361,3035.76922820,4574.0303025729,5989.61538830,5645.5454539809,8286.79488035,5645.5454539809,442.94870989,3947.6060602113002,7466.41026322,6453.3030296577,0,0,?
2018-07-08 16:22:42.599106,6613.07692808,5431.2424236993,968.07691613,4194.8787874593,541.41024856,4755.3636358881,6120.89743986,5233.4242419009,1755.76922549,5019.1212116193,6711.53846675,4442.1515147073005,2018.33332861,6502.7575751073,1394.74358370,4128.9393935265,5661.41025940,5002.6363631361,3035.76922820,4574.0303025729,5989.61538830,5645.5454539809,8286.79488035,5645.5454539809,442.94870989,3947.6060602113002,7466.41026322,6453.3030296577,0,0,?
2018-07-08 16:22:42.615063,6908.46154409,5431.2424236993,2806.02563797,4194.8787874593,1361.92307081,4755.3636358881,5464.48718206,5233.4242419009,3363.97435710,5019.1212116193,3035.76922820,4442.1515147073005,2806.02563797,6502.7575751073,4020.38461490,4128.9393935265,2510.64102196,5002.6363631361,2740.38461219,4574.0303025729,6383.46154298,5645.5454539809,6416.02564562,5645.5454539809,4414.23076958,3947.6060602113002,4578.33333403,6453.3030296577,0,0,?
2018-07-08 16:22:42.615063,5530.00000271,5431.2424236993,3134.23076687,4194.8787874593,3331.15384421,4755.3636358881,4742.43589848,5233.4242419009,1788.58973838,5019.1212116193,968.07691613,4442.1515147073005,2444.99999618,6502.7575751073,5989.61538830,4128.9393935265,2543.46153485,5002.6363631361,1887.05127705,4574.0303025729,6514.74359454,5645.5454539809,5989.35897805,5645.5454539809,1591.66666104,3947.6060602113002,508.58973567,6453.3030296577,0,0,?
2018-07-08 16:22:42.623042,7761.79487923,5431.2424236993,1788.58973838,4194.8787874593,2871.66666375,4755.3636358881,5497.30769495,5233.4242419009,2248.07691884,5019.1212116193,1427.56409659,4442.1515147073005,3331.15384421,6502.7575751073,5727.05128518,4128.9393935265,4348.58974380,5002.6363631361,2871.66666375,4574.0303025729,6908.58974922,5645.5454539809,8385.25641902,5645.5454539809,2576.28204774,3947.6060602113002,1558.84614815,6453.3030296577,0,0,?
2018-07-08 16:22:42.624040,3068.58974109,5431.2424236993,1591.66666104,4194.8787874593,836.79486457,4755.3636358881,6547.56410743,5233.4242419009,4151.66666646,5019.1212116193,3101.41025398,4442.1515147073005,4447.05128247,6502.7575751073,5891.15384963,4128.9393935265,6514.74359454,5002.6363631361,5300.38461761,4574.0303025729,935.38460837,5645.5454539809,1985.38461059,5645.5454539809,6055.25641408,3947.6060602113002,3363.97435710,6453.3030296577,0,0,?
2018-07-08 16:22:42.644983,2083.97435439,5431.2424236993,3987.56410201,4194.8787874593,2773.20512508,4755.3636358881,4315.76923091,5233.4242419009,1591.66666104,5019.1212116193,7433.58975033,4442.1515147073005,2051.15384150,6502.7575751073,4020.38461490,4128.9393935265,8090.12821326,5002.6363631361,5497.30769495,4574.0303025729,3396.92307512,5645.5454539809,1722.82050747,5645.5454539809,1197.82050636,3947.6060602113002,6908.46154409,6453.3030296577,0,0,?
2018-07-08 16:22:42.644983,442.94870989,5431.2424236993,4118.84615357,4194.8787874593,3396.79486999,4755.3636358881,3002.94871531,5233.4242419009,2412.17948329,5019.1212116193,2937.30768953,4442.1515147073005,3101.41025398,6502.7575751073,3790.64102467,4128.9393935265,4545.51282114,5002.6363631361,3889.10256334,4574.0303025729,2149.74358530,5645.5454539809,8385.25641902,5645.5454539809,5169.10256605,3947.6060602113002,5005.00000160,6453.3030296577,0,0,?
2018-07-08 16:22:42.662936,6514.61538941,5431.2424236993,7761.79487923,4194.8787874593,16.28204232,4755.3636358881,4643.97435981,5233.4242419009,1657.30768682,5019.1212116193,1000.89742902,4442.1515147073005,3101.41025398,6502.7575751073,5661.41025940,4128.9393935265,1755.76922549,5002.6363631361,1985.51281572,4574.0303025729,7565.00000702,5645.5454539809,6941.15385186,5645.5454539809,2937.30768953,3947.6060602113002,869.61537746,6453.3030296577,0,0,?
2018-07-08 16:22:42.662936,2576.15384261,3881.6666662785,4053.20512779,4194.8787874593,4479.87179536,4755.3636358881,5628.58974651,5233.4242419009,1263.46153214,5019.1212116193,7728.97436634,4442.1515147073005,1197.82050636,6502.7575751073,4643.97435981,4128.9393935265,4840.89743715,5002.6363631361,541.41024856,4574.0303025729,1952.69230283,5645.5454539809,6087.82051672,5645.5454539809,1197.82050636,3947.6060602113002,7728.97436634,6453.3030296577,0,0,?
2018-07-08 16:22:42.689862,2674.61538128,3881.6666662785,8319.74359836,5645.5454539809,475.76922278,4755.3636358881,5694.23077229,5233.4242419009,2477.82050907,5019.1212116193,2838.84615086,4442.1515147073005,3002.94871531,6502.7575751073,3495.25640866,4128.9393935265,1427.56409659,5002.6363631361,7335.12821166,4574.0303025729,7761.79487923,5645.5454539809,5070.38461713,5645.5454539809,4873.71795004,3947.6060602113002,4086.02564068,6453.3030296577,0,0,?
2018-07-08 16:22:42.689862,1296.15383990,3881.6666662785,7958.71795657,5645.5454539809,1197.82050636,4755.3636358881,4840.89743715,5233.4242419009,2346.53845751,5019.1212116193,869.61537746,4442.1515147073005,2904.48717664,6502.7575751073,1722.94871260,4128.9393935265,1132.17948058,5002.6363631361,278.84614544,4574.0303025729,6153.58974762,5645.5454539809,6087.82051672,5645.5454539809,2379.35897040,3947.6060602113002,442.94870989,4656.4545449889,0,0,?
2018-07-08 16:22:42.689862,1296.15383990,3881.6666662785,7958.71795657,5645.5454539809,1197.82050636,4755.3636358881,4840.89743715,5233.4242419009,2346.53845751,5019.1212116193,869.61537746,4442.1515147073005,2904.48717664,6502.7575751073,1722.94871260,4128.9393935265,1132.17948058,5002.6363631361,278.84614544,4574.0303025729,6153.58974762,5645.5454539809,6087.82051672,5645.5454539809,2379.35897040,3947.6060602113002,442.94870989,4656.4545449889,0,0,?
2018-07-08 16:22:42.713799,1296.15383990,3881.6666662785,7958.71795657,5645.5454539809,1197.82050636,4755.3636358881,4840.89743715,5233.4242419009,2346.53845751,5019.1212116193,869.61537746,4442.1515147073005,2904.48717664,6502.7575751073,1722.94871260,4128.9393935265,1132.17948058,5002.6363631361,278.84614544,4574.0303025729,6153.58974762,5645.5454539809,6087.82051672,5645.5454539809,2379.35897040,3947.6060602113002,442.94870989,4656.4545449889,0,0,?
2018-07-08 16:22:42.713799,1427.43589146,3881.6666662785,16.28204232,5645.5454539809,935.25640324,4293.7878783585,3593.71794733,6057.6666660609,3528.07692155,5019.1212116193,3659.35897311,4442.1515147073005,2970.12820242,6502.7575751073,4676.79487270,4128.9393935265,5694.23077229,5002.6363631361,1788.58973838,4574.0303025729,7171.02564721,5645.5454539809,8122.69231590,5645.5454539809,5759.87179807,3947.6060602113002,3593.71794733,4656.4545449889,0,0,?
2018-07-08 16:22:42.713799,1427.43589146,3881.6666662785,16.28204232,5645.5454539809,935.25640324,4293.7878783585,3593.71794733,6057.6666660609,3528.07692155,5019.1212116193,3659.35897311,4442.1515147073005,2970.12820242,6502.7575751073,4676.79487270,4128.9393935265,5694.23077229,5002.6363631361,1788.58973838,4574.0303025729,7171.02564721,5645.5454539809,8122.69231590,5645.5454539809,5759.87179807,3947.6060602113002,3593.71794733,4656.4545449889,0,0,?
2018-07-08 16:22:42.714796,3166.92307463,3881.6666662785,541.41024856,5645.5454539809,2707.56409930,4293.7878783585,4184.48717935,6057.6666660609,1099.35896769,3997.0606056609,7958.71795657,4442.1515147073005,2215.25640595,6502.7575751073,5366.02564339,4128.9393935265,4053.20512779,5002.6363631361,3495.25640866,4574.0303025729,803.97435168,5645.5454539809,8352.43590613,5645.5454539809,803.97435168,3947.6060602113002,6514.61538941,4656.4545449889,0,0,?
2018-07-08 16:22:42.727761,1755.64102036,3881.6666662785,6153.58974762,5645.5454539809,7860.25641790,4293.7878783585,3856.28205045,6057.6666660609,1394.74358370,3997.0606056609,3068.58974109,5760.9393933633,3002.94871531,6502.7575751073,1558.84614815,4128.9393935265,3134.23076687,5002.6363631361,1329.10255792,4574.0303025729,6613.07692808,5645.5454539809,6022.17949094,5645.5454539809,2707.56409930,3947.6060602113002,3659.35897311,4656.4545449889,0,0,?
2018-07-08 16:22:42.727761,213.07691453,3881.6666662785,5365.89743826,5645.5454539809,5759.74359294,4293.7878783585,968.07691613,6057.6666660609,1526.02563526,3997.0606056609,2248.07691884,5760.9393933633,2773.20512508,5348.8181812833,5333.07692537,4128.9393935265,3954.74358912,5002.6363631361,7006.92308276,4574.0303025729,5694.10256716,5645.5454539809,4217.05128199,5645.5454539809,1329.10255792,3947.6060602113002,2083.97435439,4656.4545449889,0,0,?
2018-07-08 16:22:42.743718,3659.23076798,3881.6666662785,8188.46154680,5645.5454539809,508.58973567,4293.7878783585,377.30768411,6057.6666660609,1952.69230283,3997.0606056609,344.48717122,5760.9393933633,2937.30768953,5348.8181812833,6416.15385074,4392.6969692577,2444.99999618,5002.6363631361,344.48717122,4574.0303025729,1263.46153214,5645.5454539809,6251.92308117,5645.5454539809,508.58973567,3947.6060602113002,541.41024856,4656.4545449889,0,0,?
2018-07-08 16:22:42.763666,213.20511966,3881.6666662785,2477.82050907,5645.5454539809,2182.43589306,4293.7878783585,2149.61538017,6057.6666660609,2773.20512508,3997.0606056609,3199.87179265,5760.9393933633,4808.07692426,5348.8181812833,1230.64101925,4392.6969692577,2018.33332861,5826.8787872961,2182.43589306,4574.0303025729,6416.28205587,5645.5454539809,869.48717233,5645.5454539809,6252.17949142,3947.6060602113002,4545.51282114,4656.4545449889,0,0,?
2018-07-08 16:22:42.763666,1526.02563526,3881.6666662785,4381.41025669,5645.5454539809,3757.82051178,4293.7878783585,246.02563255,6057.6666660609,1000.89742902,3997.0606056609,7761.79487923,5760.9393933633,2674.74358641,5348.8181812833,2970.12820242,4392.6969692577,4742.43589848,5826.8787872961,2477.82050907,3898.1515147617,2051.28204663,5645.5454539809,2346.41025238,5645.5454539809,3035.76922820,3947.6060602113002,6974.10256987,4656.4545449889,0,0,?
2018-07-08 16:22:42.763666,5300.38461761,3881.6666662785,5530.12820784,5645.5454539809,6974.23077500,4293.7878783585,6875.64103120,6057.6666660609,4086.02564068,3997.0606056609,2740.38461219,5760.9393933633,3462.43589577,5348.8181812833,3757.82051178,4392.6969692577,6481.92308165,5826.8787872961,3889.10256334,3898.1515147617,4480.00000049,5596.090908531301,3954.61538399,5645.5454539809,6547.56410743,3947.6060602113002,3101.41025398,4656.4545449889,0,0,?
2018-07-08 16:22:42.778625,7893.20513592,3881.6666662785,2018.33332861,5645.5454539809,81.92306810,4293.7878783585,5792.69231096,6057.6666660609,2773.20512508,3997.0606056609,8155.64103391,5760.9393933633,2477.82050907,5348.8181812833,6580.38462032,4392.6969692577,3462.56410090,5826.8787872961,4643.97435981,3898.1515147617,5398.97436141,5596.090908531301,5365.89743826,5249.9090903841,4479.87179536,4095.9696965601,7400.76923744,4656.4545449889,0,0,?
2018-07-08 16:22:42.786154,6350.64103009,3881.6666662785,902.43589035,5645.5454539809,7171.02564721,4293.7878783585,4479.87179536,6057.6666660609,4053.20512779,3997.0606056609,3560.89743444,5760.9393933633,4250.12820513,5348.8181812833,5333.20513050,4392.6969692577,49.23076034,5826.8787872961,16.28204232,6008.2121206113,902.56409548,5596.090908531301,2313.58973949,5249.9090903841,8024.48718748,4095.9696965601,4447.05128247,4656.4545449889,0,0,?
2018-07-08 16:22:42.799123,6350.64103009,3881.6666662785,902.43589035,5645.5454539809,7171.02564721,4293.7878783585,4479.87179536,6057.6666660609,4053.20512779,3997.0606056609,3560.89743444,5760.9393933633,4250.12820513,5348.8181812833,5333.20513050,4392.6969692577,49.23076034,5826.8787872961,16.28204232,6008.2121206113,902.56409548,5596.090908531301,2313.58973949,5249.9090903841,8024.48718748,4095.9696965601,4447.05128247,4656.4545449889,0,0,?
2018-07-08 16:22:42.807073,5136.28205316,3881.6666662785,7958.71795657,5645.5454539809,114.74358099,4293.7878783585,4282.94871802,6057.6666660609,2543.46153485,3997.0606056609,8319.74359836,5760.9393933633,3462.43589577,5348.8181812833,3331.15384421,4392.6969692577,5595.76923362,5826.8787872961,6908.46154409,6008.2121206113,7203.97436523,4178.3939389761,2182.30768793,5249.9090903841,3593.71794733,4095.9696965601,7597.69231478,4656.4545449889,0,0,?
2018-07-08 16:22:42.808070,443.07691502,3881.6666662785,1000.89742902,5645.5454539809,8221.28205969,4293.7878783585,5759.87179807,6057.6666660609,2806.02563797,3997.0606056609,2477.82050907,5760.9393933633,3167.05127976,5348.8181812833,4348.58974380,4392.6969692577,6449.10256876,5826.8787872961,7433.58975033,6008.2121206113,7466.53846835,4178.3939389761,3429.48717775,5464.2121206657,6416.28205587,4095.9696965601,2215.25640595,4656.4545449889,0,0,?
2018-07-08 16:22:42.828049,82.05127323,3881.6666662785,3199.87179265,5645.5454539809,672.69230012,4293.7878783585,4972.17948871,6057.6666660609,2871.66666375,3997.0606056609,2149.61538017,5760.9393933633,3232.69230554,5348.8181812833,7335.25641679,4392.6969692577,8221.41026482,5826.8787872961,6744.35897964,6008.2121206113,5759.87179807,4178.3939389761,2838.71794573,5464.2121206657,6514.74359454,4095.9696965601,1329.10255792,4656.4545449889,0,0,?
2018-07-08 16:22:42.828049,4840.89743715,3881.6666662785,3035.76922820,5645.5454539809,3134.23076687,4293.7878783585,3757.82051178,6057.6666660609,2313.71794462,3997.0606056609,7597.69231478,5760.9393933633,3823.46153756,5348.8181812833,114.87178612,4392.6969692577,344.61537635,5826.8787872961,7663.33334056,6008.2121206113,5103.46154027,4178.3939389761,3363.84615197,5464.2121206657,2444.99999618,4095.9696965601,7203.84616010,4656.4545449889,0,0,?
2018-07-08 16:22:42.843974,5562.94872073,3881.6666662785,3462.43589577,5645.5454539809,4414.23076958,4293.7878783585,3495.25640866,6057.6666660609,4512.69230825,3997.0606056609,3987.56410201,5760.9393933633,5989.61538830,5348.8181812833,7007.05128789,4392.6969692577,114.87178612,5826.8787872961,1296.28204503,6008.2121206113,5694.23077229,4178.3939389761,4643.84615468,5464.2121206657,7007.05128789,4095.9696965601,5169.10256605,4656.4545449889,0,0,?
2018-07-08 16:22:42.857971,4709.61538559,3881.6666662785,3232.69230554,5645.5454539809,2674.74358641,4293.7878783585,3134.23076687,6057.6666660609,2182.43589306,3997.0606056609,935.25640324,5760.9393933633,2674.74358641,5348.8181812833,3167.05127976,4392.6969692577,7400.89744257,5826.8787872961,8122.82052102,6008.2121206113,3363.97435710,4178.3939389761,1919.74358481,5464.2121206657,2740.38461219,4095.9696965601,7925.89744368,4656.4545449889,0,0,?
2018-07-08 16:22:42.857971,6252.17949142,3881.6666662785,3889.10256334,5645.5454539809,2248.07691884,4293.7878783585,5169.10256605,6057.6666660609,2412.17948329,3997.0606056609,2083.97435439,5760.9393933633,2248.07691884,5348.8181812833,2707.56409930,4392.6969692577,6022.43590119,5826.8787872961,16.28204232,6008.2121206113,2313.71794462,4178.3939389761,967.94871100,5464.2121206657,4020.38461490,4095.9696965601,1952.69230283,4656.4545449889,0,0,?
2018-07-08 16:22:42.873894,738.46153103,3881.6666662785,6646.02564610,5645.5454539809,5956.79487541,4293.7878783585,7007.05128789,6057.6666660609,3167.05127976,3997.0606056609,2116.79486728,5760.9393933633,3659.35897311,5348.8181812833,5694.23077229,4392.6969692577,6547.56410743,5826.8787872961,4808.07692426,6008.2121206113,5595.76923362,4178.3939389761,5661.28205427,5464.2121206657,6055.25641408,4095.9696965601,2576.28204774,4656.4545449889,0,0,?
2018-07-08 16:22:42.874892,7565.00000702,3881.6666662785,6055.25641408,5645.5454539809,7696.28205858,4293.7878783585,4939.35897582,6057.6666660609,1427.56409659,3997.0606056609,7860.25641790,5760.9393933633,1854.23076416,5348.8181812833,3659.35897311,4392.6969692577,6613.20513321,5826.8787872961,5497.30769495,6008.2121206113,6547.56410743,4178.3939389761,6481.79487652,5464.2121206657,3363.97435710,4095.9696965601,7367.94872455,4656.4545449889,0,0,?
2018-07-08 16:22:42.874892,5398.84615628,3881.6666662785,3002.94871531,5645.5454539809,4873.71795004,4293.7878783585,3528.07692155,6057.6666660609,3790.64102467,3997.0606056609,4282.94871802,5760.9393933633,3298.33333132,5348.8181812833,7367.94872455,4392.6969692577,5464.48718206,5826.8787872961,2510.64102196,6008.2121206113,3199.87179265,4178.3939389761,3331.02563908,5464.2121206657,8122.94872615,4095.9696965601,4282.94871802,4656.4545449889,0,0,?
2018-07-08 16:22:42.874892,2149.61538017,3881.6666662785,8122.82052102,5645.5454539809,7203.84616010,4293.7878783585,3298.33333132,6057.6666660609,3757.82051178,3997.0606056609,2806.02563797,5760.9393933633,4282.94871802,5348.8181812833,5727.05128518,4392.6969692577,7630.64103280,5826.8787872961,1821.41025127,6008.2121206113,3462.43589577,4178.3939389761,5333.07692537,5464.2121206657,5431.66666917,4095.9696965601,3790.64102467,4656.4545449889,0,0,?
2018-07-08 16:22:42.874892,4086.02564068,3881.6666662785,3987.56410201,5645.5454539809,1755.76922549,4293.7878783585,6810.12821055,6057.6666660609,3167.05127976,3997.0606056609,8090.00000813,5760.9393933633,3724.99999889,5348.8181812833,475.89742791,4392.6969692577,475.89742791,5826.8787872961,6022.43590119,6008.2121206113,7368.07692968,4178.3939389761,7663.33334056,5464.2121206657,2248.07691884,4095.9696965601,6416.15385074,4656.4545449889,0,0,?
2018-07-08 16:22:42.904846,4086.02564068,3881.6666662785,3987.56410201,5645.5454539809,1755.76922549,4293.7878783585,6810.12821055,6057.6666660609,3167.05127976,3997.0606056609,8090.00000813,5760.9393933633,3724.99999889,5348.8181812833,475.89742791,4392.6969692577,475.89742791,5826.8787872961,6022.43590119,6008.2121206113,7368.07692968,4178.3939389761,7663.33334056,5464.2121206657,2248.07691884,4095.9696965601,6416.15385074,4656.4545449889,0,0,?
2018-07-08 16:22:42.912789,4086.02564068,3881.6666662785,3987.56410201,5645.5454539809,1755.76922549,4293.7878783585,6810.12821055,6057.6666660609,3167.05127976,3997.0606056609,8090.00000813,5760.9393933633,3724.99999889,5348.8181812833,475.89742791,4392.6969692577,475.89742791,5826.8787872961,6022.43590119,6008.2121206113,7368.07692968,4178.3939389761,7663.33334056,5464.2121206657,2248.07691884,4095.9696965601,6416.15385074,4656.4545449889,0,0,?
2018-07-08 16:22:42.936724,6252.17949142,3881.6666662785,6416.28205587,5645.5454539809,1361.92307081,4293.7878783585,8352.69231638,6057.6666660609,5366.02564339,3997.0606056609,3724.99999889,5760.9393933633,5825.51282385,5348.8181812833,1066.66665993,4392.6969692577,1394.87178883,5826.8787872961,7565.00000702,6008.2121206113,82.05127323,4178.3939389761,1099.35896769,5464.2121206657,7203.97436523,4095.9696965601,3954.74358912,4656.4545449889,0,0,?
2018-07-08 16:22:42.936724,5497.30769495,3881.6666662785,4808.07692426,5645.5454539809,7236.66667299,4293.7878783585,1526.15384039,6057.6666660609,3626.53846022,3997.0606056609,902.43589035,5760.9393933633,5136.28205316,5348.8181812833,344.61537635,4392.6969692577,1690.25640484,5826.8787872961,5628.58974651,6008.2121206113,1132.30768571,4178.3939389761,1132.17948058,5464.2121206657,4020.38461490,4095.9696965601,8024.35898235,4656.4545449889,0,0,?
2018-07-08 16:22:42.944704,6153.71795275,3881.6666662785,4414.23076958,5645.5454539809,935.25640324,4293.7878783585,1132.30768571,6057.6666660609,3921.92307623,3997.0606056609,1591.66666104,5760.9393933633,4479.87179536,5348.8181812833,6974.23077500,4392.6969692577,1001.02563415,5826.8787872961,3954.74358912,6008.2121206113,2281.02563686,4178.3939389761,7105.38462143,5464.2121206657,4053.20512779,4095.9696965601,7958.71795657,4656.4545449889,0,0,?
2018-07-08 16:22:42.944704,6055.25641408,3881.6666662785,8352.69231638,5645.5454539809,5005.00000160,4293.7878783585,6908.58974922,6057.6666660609,5497.30769495,3997.0606056609,3134.23076687,5760.9393933633,4939.35897582,5348.8181812833,5201.92307894,4392.6969692577,6646.02564610,5826.8787872961,2674.74358641,6008.2121206113,1099.48717282,4178.3939389761,4578.20512890,5464.2121206657,7597.82051991,4095.9696965601,2182.43589306,4656.4545449889,0,0,?
2018-07-08 16:22:42.972632,5595.76923362,3881.6666662785,114.87178612,5645.5454539809,4840.89743715,4293.7878783585,5891.15384963,6057.6666660609,3495.25640866,3997.0606056609,3134.23076687,5760.9393933633,3331.15384421,5348.8181812833,935.25640324,4392.6969692577,2412.17948329,5826.8787872961,2018.33332861,6008.2121206113,7236.79487812,4178.3939389761,4020.25640977,5464.2121206657,6908.58974922,4095.9696965601,3757.82051178,4656.4545449889,0,0,?
2018-07-08 16:22:42.972632,5595.76923362,3881.6666662785,114.87178612,5645.5454539809,4840.89743715,4293.7878783585,5891.15384963,6057.6666660609,3495.25640866,3997.0606056609,3134.23076687,5760.9393933633,3331.15384421,5348.8181812833,935.25640324,4392.6969692577,2412.17948329,5826.8787872961,2018.33332861,6008.2121206113,7236.79487812,4178.3939389761,4020.25640977,5464.2121206657,6908.58974922,4095.9696965601,3757.82051178,4656.4545449889,0,0,?
2018-07-08 16:22:42.981606,7138.20513432,3881.6666662785,5201.92307894,5645.5454539809,2576.28204774,4293.7878783585,3921.92307623,6057.6666660609,2707.56409930,3997.0606056609,246.02563255,5760.9393933633,2248.07691884,5348.8181812833,7564.87180189,4392.6969692577,2609.10256063,5826.8787872961,1427.56409659,6008.2121206113,4906.53846293,4178.3939389761,3888.97435821,5464.2121206657,3035.76922820,4095.9696965601,147.56409388,4656.4545449889,0,0,?
2018-07-08 16:22:42.981606,7138.20513432,3881.6666662785,5201.92307894,5645.5454539809,2576.28204774,4293.7878783585,3921.92307623,6057.6666660609,2707.56409930,3997.0606056609,246.02563255,5760.9393933633,2248.07691884,5348.8181812833,7564.87180189,4392.6969692577,2609.10256063,5826.8787872961,1427.56409659,6008.2121206113,4906.53846293,4178.3939389761,3888.97435821,5464.2121206657,3035.76922820,4095.9696965601,147.56409388,4656.4545449889,0,0,?
2018-07-08 16:22:43.017514,344.48717122,3881.6666662785,6974.23077500,5645.5454539809,3823.46153756,4293.7878783585,3790.64102467,6057.6666660609,3593.71794733,3997.0606056609,3626.53846022,5760.9393933633,3856.28205045,5348.8181812833,2313.71794462,4392.6969692577,4545.51282114,5826.8787872961,4479.87179536,6008.2121206113,4479.87179536,4178.3939389761,5530.00000271,5464.2121206657,6449.10256876,4095.9696965601,4118.84615357,4656.4545449889,0,0,?
2018-07-08 16:22:43.017514,7302.30769877,3881.6666662785,5300.38461761,5645.5454539809,4447.05128247,4293.7878783585,2904.48717664,6057.6666660609,902.43589035,3997.0606056609,7958.71795657,5760.9393933633,2346.53845751,5348.8181812833,935.25640324,4392.6969692577,5858.33333674,5826.8787872961,5333.20513050,6008.2121206113,3298.33333132,4178.3939389761,5595.64102849,5464.2121206657,902.43589035,4095.9696965601,6875.64103120,4656.4545449889,0,0,?
2018-07-08 16:22:43.041446,6317.69231207,3881.6666662785,6219.35897853,5645.5454539809,3462.43589577,4293.7878783585,3462.43589577,6057.6666660609,2412.17948329,3997.0606056609,1361.92307081,5760.9393933633,4053.20512779,5348.8181812833,4315.76923091,4392.6969692577,3823.46153756,5826.8787872961,4414.23076958,6008.2121206113,1887.05127705,4178.3939389761,7958.71795657,5464.2121206657,3035.76922820,4095.9696965601,738.33332590,4656.4545449889,0,0,?
2018-07-08 16:22:43.041446,508.58973567,3881.6666662785,6646.02564610,5645.5454539809,4775.25641137,4293.7878783585,5891.15384963,6057.6666660609,4086.02564068,3997.0606056609,4840.89743715,5760.9393933633,6186.53846564,5348.8181812833,4676.79487270,4392.6969692577,5989.61538830,5826.8787872961,5595.76923362,6008.2121206113,4053.20512779,4178.3939389761,278.84614544,5464.2121206657,5759.87179807,4095.9696965601,3889.10256334,4656.4545449889,0,0,?
2018-07-08 16:22:43.041446,508.58973567,3881.6666662785,6646.02564610,5645.5454539809,4775.25641137,4293.7878783585,5891.15384963,6057.6666660609,4086.02564068,3997.0606056609,4840.89743715,5760.9393933633,6186.53846564,5348.8181812833,4676.79487270,4392.6969692577,5989.61538830,5826.8787872961,5595.76923362,6008.2121206113,4053.20512779,4178.3939389761,278.84614544,5464.2121206657,5759.87179807,4095.9696965601,3889.10256334,4656.4545449889,0,0,?
2018-07-08 16:22:43.041446,508.58973567,3881.6666662785,6646.02564610,5645.5454539809,4775.25641137,4293.7878783585,5891.15384963,6057.6666660609,4086.02564068,3997.0606056609,4840.89743715,5760.9393933633,6186.53846564,5348.8181812833,4676.79487270,4392.6969692577,5989.61538830,5826.8787872961,5595.76923362,6008.2121206113,4053.20512779,4178.3939389761,278.84614544,5464.2121206657,5759.87179807,4095.9696965601,3889.10256334,4656.4545449889,0,0,?
2018-07-08 16:22:43.055409,836.79486457,3881.6666662785,1263.46153214,5645.5454539809,410.12819700,4293.7878783585,8385.38462414,6057.6666660609,3560.89743444,3997.0606056609,2379.35897040,5760.9393933633,4643.97435981,5348.8181812833,147.56409388,4392.6969692577,574.23076145,5826.8787872961,278.84614544,6008.2121206113,2510.64102196,4178.3939389761,4414.10256445,5464.2121206657,5201.92307894,4095.9696965601,1591.66666104,4656.4545449889,0,0,?
2018-07-08 16:22:43.055409,2576.28204774,3881.6666662785,4151.66666646,5645.5454539809,3724.99999889,4293.7878783585,8188.46154680,6057.6666660609,2477.82050907,3997.0606056609,1132.17948058,5760.9393933633,2773.20512508,5348.8181812833,7860.25641790,4392.6969692577,6514.61538941,5826.8787872961,1887.05127705,6008.2121206113,6416.28205587,4178.3939389761,5661.28205427,5464.2121206657,3232.69230554,4095.9696965601,8188.46154680,4656.4545449889,0,0,?
2018-07-08 16:22:43.062390,4512.69230825,3881.6666662785,508.71794080,5645.5454539809,5398.84615628,4293.7878783585,6810.00000542,6057.6666660609,3035.76922820,3997.0606056609,3823.46153756,5760.9393933633,4414.23076958,5348.8181812833,246.02563255,4392.6969692577,6481.79487652,5826.8787872961,3987.56410201,6008.2121206113,8188.58975193,4178.3939389761,5792.56410583,5464.2121206657,7236.79487812,4095.9696965601,4709.61538559,4656.4545449889,0,0,?
2018-07-08 16:22:43.070368,4512.69230825,3881.6666662785,508.71794080,5645.5454539809,5398.84615628,4293.7878783585,6810.00000542,6057.6666660609,3035.76922820,3997.0606056609,3823.46153756,5760.9393933633,4414.23076958,5348.8181812833,246.02563255,4392.6969692577,6481.79487652,5826.8787872961,3987.56410201,6008.2121206113,8188.58975193,4178.3939389761,5792.56410583,5464.2121206657,7236.79487812,4095.9696965601,4709.61538559,4656.4545449889,0,0,?
2018-07-08 16:22:43.102284,4512.69230825,3881.6666662785,508.71794080,5645.5454539809,5398.84615628,4293.7878783585,6810.00000542,6057.6666660609,3035.76922820,3997.0606056609,3823.46153756,5760.9393933633,4414.23076958,5348.8181812833,246.02563255,4392.6969692577,6481.79487652,5826.8787872961,3987.56410201,6008.2121206113,8188.58975193,4178.3939389761,5792.56410583,5464.2121206657,7236.79487812,4095.9696965601,4709.61538559,4656.4545449889,0,0,?
2018-07-08 16:22:43.102284,4808.07692426,3881.6666662785,7203.97436523,5645.5454539809,2937.30768953,4293.7878783585,6416.15385074,6057.6666660609,311.66665833,3997.0606056609,7794.61539212,5760.9393933633,3757.82051178,5348.8181812833,2149.61538017,4392.6969692577,7696.15385345,5826.8787872961,4611.15384692,6008.2121206113,1624.61537906,4178.3939389761,6810.00000542,5464.2121206657,3298.33333132,4095.9696965601,7171.02564721,4656.4545449889,0,0,?
2018-07-08 16:22:43.118249,7368.07692968,3881.6666662785,6120.89743986,5645.5454539809,2970.12820242,4293.7878783585,246.02563255,6057.6666660609,1657.30768682,3997.0606056609,2379.35897040,5760.9393933633,3889.10256334,5348.8181812833,3495.25640866,4392.6969692577,1230.64101925,5826.8787872961,5136.28205316,6008.2121206113,3593.84615246,4178.3939389761,738.33332590,5464.2121206657,6777.30769766,4095.9696965601,2773.20512508,4656.4545449889,0,0,?
2018-07-08 16:22:43.118249,7630.64103280,3881.6666662785,6252.17949142,5645.5454539809,2740.38461219,4293.7878783585,1591.66666104,6057.6666660609,4512.69230825,3997.0606056609,4381.41025669,5760.9393933633,6022.43590119,5348.8181812833,2018.33332861,4392.6969692577,6317.82051720,5826.8787872961,5989.61538830,6008.2121206113,2018.46153374,4178.3939389761,3035.76922820,5464.2121206657,7761.92308436,4095.9696965601,4217.30769224,4656.4545449889,0,0,?
2018-07-08 16:22:43.134197,5923.97436252,3881.6666662785,1197.94871149,5645.5454539809,6547.56410743,4293.7878783585,4282.94871802,6057.6666660609,2477.82050907,3997.0606056609,16.28204232,5760.9393933633,4086.02564068,5348.8181812833,1296.28204503,4392.6969692577,7400.89744257,5826.8787872961,7565.00000702,6008.2121206113,1591.79486617,4178.3939389761,2838.84615086,5464.2121206657,2904.48717664,4095.9696965601,7203.84616010,4656.4545449889,0,0,?
2018-07-08 16:22:43.162124,2970.12820242,3881.6666662785,246.15383768,5645.5454539809,1099.48717282,4293.7878783585,4086.02564068,6057.6666660609,3921.92307623,3997.0606056609,1887.05127705,5760.9393933633,4676.79487270,5348.8181812833,2248.07691884,4392.6969692577,5759.87179807,5826.8787872961,7236.79487812,6008.2121206113,7368.07692968,4178.3939389761,1329.10255792,5464.2121206657,4217.30769224,4095.9696965601,3331.15384421,4656.4545449889,0,0,?
2018-07-08 16:22:43.162124,2970.12820242,3881.6666662785,246.15383768,5645.5454539809,1099.48717282,4293.7878783585,4086.02564068,6057.6666660609,3921.92307623,3997.0606056609,1887.05127705,5760.9393933633,4676.79487270,5348.8181812833,2248.07691884,4392.6969692577,5759.87179807,5826.8787872961,7236.79487812,6008.2121206113,7368.07692968,4178.3939389761,1329.10255792,5464.2121206657,4217.30769224,4095.9696965601,3331.15384421,4656.4545449889,0,0,?
2018-07-08 16:22:43.162124,2970.12820242,3881.6666662785,246.15383768,5645.5454539809,1099.48717282,4293.7878783585,4086.02564068,6057.6666660609,3921.92307623,3997.0606056609,1887.05127705,5760.9393933633,4676.79487270,5348.8181812833,2248.07691884,4392.6969692577,5759.87179807,5826.8787872961,7236.79487812,6008.2121206113,7368.07692968,4178.3939389761,1329.10255792,5464.2121206657,4217.30769224,4095.9696965601,3331.15384421,4656.4545449889,0,0,?
2018-07-08 16:22:43.184078,3659.23076798,3881.6666662785,4775.25641137,5645.5454539809,3790.64102467,4293.7878783585,968.07691613,6057.6666660609,2773.20512508,3997.0606056609,114.74358099,5760.9393933633,4906.53846293,5348.8181812833,6219.35897853,4392.6969692577,6481.92308165,5826.8787872961,2773.20512508,6008.2121206113,639.87178723,4178.3939389761,4972.05128358,5464.2121206657,1887.05127705,4095.9696965601,6580.25641519,4656.4545449889,0,0,?
2018-07-08 16:22:43.184078,3659.23076798,3881.6666662785,4775.25641137,5645.5454539809,3790.64102467,4293.7878783585,968.07691613,6057.6666660609,2773.20512508,3997.0606056609,114.74358099,5760.9393933633,4906.53846293,5348.8181812833,6219.35897853,4392.6969692577,6481.92308165,5826.8787872961,2773.20512508,6008.2121206113,639.87178723,4178.3939389761,4972.05128358,5464.2121206657,1887.05127705,4095.9696965601,6580.25641519,4656.4545449889,0,0,?
2018-07-08 16:22:43.184078,1657.17948169,3881.6666662785,5005.00000160,5645.5454539809,3101.41025398,4293.7878783585,7794.61539212,6057.6666660609,3889.10256334,3997.0606056609,4184.48717935,5760.9393933633,5497.30769495,5348.8181812833,5825.51282385,4392.6969692577,5267.56410472,5826.8787872961,1361.92307081,6008.2121206113,7138.20513432,4178.3939389761,3429.48717775,5464.2121206657,6088.07692697,4095.9696965601,4578.33333403,4656.4545449889,0,0,?
2018-07-08 16:22:43.184078,7531.92308388,3881.6666662785,2116.79486728,5645.5454539809,738.33332590,4293.7878783585,7171.02564721,6057.6666660609,2083.97435439,3997.0606056609,311.66665833,5760.9393933633,3363.97435710,5348.8181812833,5530.12820784,4392.6969692577,3429.61538288,5826.8787872961,1755.76922549,6008.2121206113,6383.33333785,4178.3939389761,2871.53845862,5464.2121206657,1197.82050636,4095.9696965601,8122.82052102,4656.4545449889,0,0,?
2018-07-08 16:22:43.192049,81.79486297,3881.6666662785,7433.58975033,5645.5454539809,6613.07692808,4293.7878783585,6448.97436363,6057.6666660609,2740.38461219,3997.0606056609,1394.74358370,5760.9393933633,3724.99999889,5348.8181812833,3002.94871531,4392.6969692577,1854.23076416,5826.8787872961,1887.05127705,6008.2121206113,5694.10256716,4178.3939389761,2379.23076527,5464.2121206657,3232.69230554,4095.9696965601,2248.07691884,4656.4545449889,0,0,?
2018-07-08 16:22:43.208001,2149.48717504,3881.6666662785,180.38460677,5645.5454539809,8024.35898235,4293.7878783585,5365.89743826,6057.6666660609,3363.97435710,3997.0606056609,2280.89743173,5760.9393933633,5103.46154027,5348.8181812833,1493.20512237,4392.6969692577,7564.87180189,5826.8787872961,2412.17948329,6008.2121206113,7302.30769877,4178.3939389761,3298.20512619,5464.2121206657,5858.33333674,4095.9696965601,2674.74358641,4656.4545449889,0,0,?
2018-07-08 16:22:43.208001,5300.25641248,3881.6666662785,3002.94871531,5645.5454539809,2576.28204774,4293.7878783585,4939.23077069,6057.6666660609,1788.58973838,3997.0606056609,7827.43590501,5760.9393933633,3167.05127976,5348.8181812833,1690.12819971,4392.6969692577,5923.84615739,5826.8787872961,5070.64102738,6008.2121206113,3757.82051178,4178.3939389761,5759.74359294,5464.2121206657,2083.97435439,4095.9696965601,7302.30769877,4656.4545449889,0,0,?
2018-07-08 16:22:43.208001,2280.89743173,3881.6666662785,5333.20513050,5645.5454539809,4611.15384692,4293.7878783585,5431.53846404,6057.6666660609,3692.17948600,3997.0606056609,3298.33333132,5760.9393933633,3396.79486999,5348.8181812833,8319.74359836,4392.6969692577,7466.41026322,5826.8787872961,7729.10257147,6008.2121206113,7761.92308436,4178.3939389761,8188.46154680,5464.2121206657,6350.64103009,4095.9696965601,4742.43589848,4656.4545449889,0,0,?
2018-07-08 16:22:43.209014,1624.48717393,3881.6666662785,5070.64102738,5645.5454539809,5431.66666917,4293.7878783585,5661.28205427,6057.6666660609,3101.41025398,3997.0606056609,213.20511966,5760.9393933633,6120.89743986,5348.8181812833,6810.00000542,4392.6969692577,7597.69231478,5826.8787872961,6547.56410743,6008.2121206113,377.43588924,4178.3939389761,738.33332590,5464.2121206657,3298.33333132,4095.9696965601,8057.17949524,4656.4545449889,0,0,?
2018-07-08 16:22:43.209014,7794.61539212,4969.6666661697,3823.46153756,5645.5454539809,2871.66666375,4293.7878783585,3987.43589688,6057.6666660609,3363.97435710,3997.0606056609,1493.20512237,5760.9393933633,3462.56410090,5348.8181812833,7105.38462143,4392.6969692577,4020.25640977,5826.8787872961,3757.82051178,6008.2121206113,6416.28205587,4178.3939389761,7597.69231478,5464.2121206657,4086.02564068,4095.9696965601,1460.38460948,4656.4545449889,0,0,?
2018-07-08 16:22:43.209014,7367.94872455,4969.6666661697,3396.79486999,5579.6060600481005,8057.17949524,4293.7878783585,4611.02564179,6057.6666660609,3659.35897311,3997.0606056609,2707.56409930,5760.9393933633,3725.12820402,5348.8181812833,377.30768411,4392.6969692577,3659.23076798,5826.8787872961,3757.82051178,6008.2121206113,4414.23076958,4178.3939389761,6416.15385074,5464.2121206657,5694.23077229,4095.9696965601,3068.58974109,4656.4545449889,0,0,?
2018-07-08 16:22:43.209014,7532.05128900,4969.6666661697,2838.84615086,5579.6060600481005,278.84614544,4293.7878783585,1788.58973838,6057.6666660609,2083.97435439,3997.0606056609,7728.97436634,5760.9393933633,7663.46154569,5348.8181812833,3298.33333132,4392.6969692577,7991.53846946,5826.8787872961,5333.20513050,6008.2121206113,6219.35897853,4178.3939389761,81.92306810,5464.2121206657,1460.38460948,4095.9696965601,7236.66667299,3881.6666662785,0,0,?
2018-07-08 16:22:43.221963,1854.23076416,4969.6666661697,4611.15384692,5579.6060600481005,3790.64102467,6304.9393933089,6842.94872344,6057.6666660609,5103.46154027,3997.0606056609,4151.66666646,5760.9393933633,1197.94871149,5348.8181812833,6252.17949142,4392.6969692577,4775.25641137,5826.8787872961,6941.41026211,6008.2121206113,246.15383768,4178.3939389761,2904.48717664,5464.2121206657,6481.92308165,4095.9696965601,4676.79487270,3881.6666662785,0,0,?
2018-07-08 16:22:43.221963,508.58973567,4969.6666661697,6383.46154298,5579.6060600481005,5497.30769495,6304.9393933089,5300.38461761,4738.8787874049,4676.79487270,3997.0606056609,1033.71794191,5760.9393933633,1690.25640484,5348.8181812833,7696.28205858,4392.6969692577,508.71794080,5826.8787872961,7696.28205858,6008.2121206113,7499.35898124,4178.3939389761,2609.10256063,5464.2121206657,4348.58974380,4095.9696965601,8319.74359836,3881.6666662785,0,0,?
2018-07-08 16:22:43.221963,4479.74359023,4969.6666661697,2707.56409930,5579.6060600481005,3724.99999889,6304.9393933089,672.69230012,4738.8787874049,1132.17948058,4672.9393934721,2641.92307352,5925.7878781953,3659.35897311,3766.2727268961003,1722.94871260,5381.7878782497,2838.84615086,4705.9090904385,4611.15384692,5200.4545449345005,2346.53845751,5068.5757570689,8352.56411125,3551.9696966145,3823.46153756,5530.1515145985,3167.05127976,3881.6666662785,0,0,?
2018-07-08 16:22:43.222960,4479.74359023,4969.6666661697,2707.56409930,5579.6060600481005,3724.99999889,6304.9393933089,672.69230012,4738.8787874049,1132.17948058,4672.9393934721,2641.92307352,5925.7878781953,3659.35897311,3766.2727268961003,1722.94871260,5381.7878782497,2838.84615086,4705.9090904385,4611.15384692,5200.4545449345005,2346.53845751,5068.5757570689,8352.56411125,3551.9696966145,3823.46153756,5530.1515145985,3167.05127976,3881.6666662785,0,0,?
2018-07-08 16:22:43.250886,4479.74359023,4969.6666661697,2707.56409930,5579.6060600481005,3724.99999889,6304.9393933089,672.69230012,4738.8787874049,1132.17948058,4672.9393934721,2641.92307352,5925.7878781953,3659.35897311,3766.2727268961003,1722.94871260,5381.7878782497,2838.84615086,4705.9090904385,4611.15384692,5200.4545449345005,2346.53845751,5068.5757570689,8352.56411125,3551.9696966145,3823.46153756,5530.1515145985,3167.05127976,3881.6666662785,0,0,?
2018-07-08 16:22:43.258865,4479.74359023,4969.6666661697,2707.56409930,5579.6060600481005,3724.99999889,6304.9393933089,672.69230012,4738.8787874049,1132.17948058,4672.9393934721,2641.92307352,5925.7878781953,3659.35897311,3766.2727268961003,1722.94871260,5381.7878782497,2838.84615086,4705.9090904385,4611.15384692,5200.4545449345005,2346.53845751,5068.5757570689,8352.56411125,3551.9696966145,3823.46153756,5530.1515145985,3167.05127976,3881.6666662785,0,0,?
2018-07-08 16:22:43.258865,4479.74359023,4969.6666661697,2707.56409930,5579.6060600481005,3724.99999889,6304.9393933089,672.69230012,4738.8787874049,1132.17948058,4672.9393934721,2641.92307352,5925.7878781953,3659.35897311,3766.2727268961003,1722.94871260,5381.7878782497,2838.84615086,4705.9090904385,4611.15384692,5200.4545449345005,2346.53845751,5068.5757570689,8352.56411125,3551.9696966145,3823.46153756,5530.1515145985,3167.05127976,3881.6666662785,0,0,?
2018-07-08 16:22:43.274821,4479.74359023,4969.6666661697,2707.56409930,5579.6060600481005,3724.99999889,6304.9393933089,672.69230012,4738.8787874049,1132.17948058,4672.9393934721,2641.92307352,5925.7878781953,3659.35897311,3766.2727268961003,1722.94871260,5381.7878782497,2838.84615086,4705.9090904385,4611.15384692,5200.4545449345005,2346.53845751,5068.5757570689,8352.56411125,3551.9696966145,3823.46153756,5530.1515145985,3167.05127976,3881.6666662785,0,0,?
2018-07-08 16:22:43.290778,4479.74359023,4969.6666661697,2707.56409930,5579.6060600481005,3724.99999889,6304.9393933089,672.69230012,4738.8787874049,1132.17948058,4672.9393934721,2641.92307352,5925.7878781953,3659.35897311,3766.2727268961003,1722.94871260,5381.7878782497,2838.84615086,4705.9090904385,4611.15384692,5200.4545449345005,2346.53845751,5068.5757570689,8352.56411125,3551.9696966145,3823.46153756,5530.1515145985,3167.05127976,3881.6666662785,0,0,?
2018-07-08 16:22:43.290778,4873.58974491,4969.6666661697,1722.94871260,5579.6060600481005,3495.25640866,6304.9393933089,311.66665833,4738.8787874049,1952.69230283,4672.9393934721,1919.87178994,5925.7878781953,4381.41025669,3766.2727268961003,935.25640324,5381.7878782497,2707.56409930,4705.9090904385,4873.71795004,5200.4545449345005,1887.05127705,5068.5757570689,7728.97436634,3551.9696966145,3298.33333132,5530.1515145985,1361.92307081,3881.6666662785,0,0,?
2018-07-08 16:22:43.291777,4873.58974491,4969.6666661697,1722.94871260,5579.6060600481005,3495.25640866,6304.9393933089,311.66665833,4738.8787874049,1952.69230283,4672.9393934721,1919.87178994,5925.7878781953,4381.41025669,3766.2727268961003,935.25640324,5381.7878782497,2707.56409930,4705.9090904385,4873.71795004,5200.4545449345005,1887.05127705,5068.5757570689,7728.97436634,3551.9696966145,3298.33333132,5530.1515145985,1361.92307081,3881.6666662785,0,0,?
2018-07-08 16:22:43.297760,4873.58974491,4969.6666661697,1722.94871260,5579.6060600481005,3495.25640866,6304.9393933089,311.66665833,4738.8787874049,1952.69230283,4672.9393934721,1919.87178994,5925.7878781953,4381.41025669,3766.2727268961003,935.25640324,5381.7878782497,2707.56409930,4705.9090904385,4873.71795004,5200.4545449345005,1887.05127705,5068.5757570689,7728.97436634,3551.9696966145,3298.33333132,5530.1515145985,1361.92307081,3881.6666662785,0,0,?
2018-07-08 16:22:43.303747,4873.58974491,4969.6666661697,1722.94871260,5579.6060600481005,3495.25640866,6304.9393933089,311.66665833,4738.8787874049,1952.69230283,4672.9393934721,1919.87178994,5925.7878781953,4381.41025669,3766.2727268961003,935.25640324,5381.7878782497,2707.56409930,4705.9090904385,4873.71795004,5200.4545449345005,1887.05127705,5068.5757570689,7728.97436634,3551.9696966145,3298.33333132,5530.1515145985,1361.92307081,3881.6666662785,0,0,?
2018-07-08 16:22:43.303747,4873.58974491,4969.6666661697,1722.94871260,5579.6060600481005,3495.25640866,6304.9393933089,311.66665833,4738.8787874049,1952.69230283,4672.9393934721,1919.87178994,5925.7878781953,4381.41025669,3766.2727268961003,935.25640324,5381.7878782497,2707.56409930,4705.9090904385,4873.71795004,5200.4545449345005,1887.05127705,5068.5757570689,7728.97436634,3551.9696966145,3298.33333132,5530.1515145985,1361.92307081,3881.6666662785,0,0,?
2018-07-08 16:22:43.319702,4873.58974491,4969.6666661697,1722.94871260,5579.6060600481005,3495.25640866,6304.9393933089,311.66665833,4738.8787874049,1952.69230283,4672.9393934721,1919.87178994,5925.7878781953,4381.41025669,3766.2727268961003,935.25640324,5381.7878782497,2707.56409930,4705.9090904385,4873.71795004,5200.4545449345005,1887.05127705,5068.5757570689,7728.97436634,3551.9696966145,3298.33333132,5530.1515145985,1361.92307081,3881.6666662785,0,0,?
2018-07-08 16:22:43.331672,4873.58974491,4969.6666661697,1722.94871260,5579.6060600481005,3495.25640866,6304.9393933089,311.66665833,4738.8787874049,1952.69230283,4672.9393934721,1919.87178994,5925.7878781953,4381.41025669,3766.2727268961003,935.25640324,5381.7878782497,2707.56409930,4705.9090904385,4873.71795004,5200.4545449345005,1887.05127705,5068.5757570689,7728.97436634,3551.9696966145,3298.33333132,5530.1515145985,1361.92307081,3881.6666662785,0,0,?
2018-07-08 16:22:43.331672,4873.58974491,4969.6666661697,1722.94871260,5579.6060600481005,3495.25640866,6304.9393933089,311.66665833,4738.8787874049,1952.69230283,4672.9393934721,1919.87178994,5925.7878781953,4381.41025669,3766.2727268961003,935.25640324,5381.7878782497,2707.56409930,4705.9090904385,4873.71795004,5200.4545449345005,1887.05127705,5068.5757570689,7728.97436634,3551.9696966145,3298.33333132,5530.1515145985,1361.92307081,3881.6666662785,0,0,?
2018-07-08 16:22:43.331672,4873.58974491,4969.6666661697,1722.94871260,5579.6060600481005,3495.25640866,6304.9393933089,311.66665833,4738.8787874049,1952.69230283,4672.9393934721,1919.87178994,5925.7878781953,4381.41025669,3766.2727268961003,935.25640324,5381.7878782497,2707.56409930,4705.9090904385,4873.71795004,5200.4545449345005,1887.05127705,5068.5757570689,7728.97436634,3551.9696966145,3298.33333132,5530.1515145985,1361.92307081,3881.6666662785,0,0,?
2018-07-08 16:22:43.369601,4873.58974491,4969.6666661697,1722.94871260,5579.6060600481005,3495.25640866,6304.9393933089,311.66665833,4738.8787874049,1952.69230283,4672.9393934721,1919.87178994,5925.7878781953,4381.41025669,3766.2727268961003,935.25640324,5381.7878782497,2707.56409930,4705.9090904385,4873.71795004,5200.4545449345005,1887.05127705,5068.5757570689,7728.97436634,3551.9696966145,3298.33333132,5530.1515145985,1361.92307081,3881.6666662785,0,0,?
2018-07-08 16:22:43.369601,4873.58974491,4969.6666661697,1722.94871260,5579.6060600481005,3495.25640866,6304.9393933089,311.66665833,4738.8787874049,1952.69230283,4672.9393934721,1919.87178994,5925.7878781953,4381.41025669,3766.2727268961003,935.25640324,5381.7878782497,2707.56409930,4705.9090904385,4873.71795004,5200.4545449345005,1887.05127705,5068.5757570689,7728.97436634,3551.9696966145,3298.33333132,5530.1515145985,1361.92307081,3881.6666662785,0,0,?
2018-07-08 16:22:43.405507,4873.58974491,4969.6666661697,1722.94871260,5579.6060600481005,3495.25640866,6304.9393933089,311.66665833,4738.8787874049,1952.69230283,4672.9393934721,1919.87178994,5925.7878781953,4381.41025669,3766.2727268961003,935.25640324,5381.7878782497,2707.56409930,4705.9090904385,4873.71795004,5200.4545449345005,1887.05127705,5068.5757570689,7728.97436634,3551.9696966145,3298.33333132,5530.1515145985,1361.92307081,3881.6666662785,0,0,?
2018-07-08 16:22:43.405507,4873.58974491,4969.6666661697,1722.94871260,5579.6060600481005,3495.25640866,6304.9393933089,311.66665833,4738.8787874049,1952.69230283,4672.9393934721,1919.87178994,5925.7878781953,4381.41025669,3766.2727268961003,935.25640324,5381.7878782497,2707.56409930,4705.9090904385,4873.71795004,5200.4545449345005,1887.05127705,5068.5757570689,7728.97436634,3551.9696966145,3298.33333132,5530.1515145985,1361.92307081,3881.6666662785,0,0,?
2018-07-08 16:22:43.419436,5333.07692537,4969.6666661697,7433.58975033,5579.6060600481005,114.74358099,6304.9393933089,7761.79487923,4738.8787874049,1558.84614815,4672.9393934721,8188.46154680,5925.7878781953,3724.99999889,3766.2727268961003,2641.92307352,5381.7878782497,1296.28204503,4705.9090904385,3495.25640866,5200.4545449345005,738.33332590,5068.5757570689,5497.17948982,3551.9696966145,7991.53846946,5530.1515145985,7006.92308276,3881.6666662785,0,0,?
2018-07-08 16:22:43.419436,3823.46153756,4969.6666661697,2083.97435439,5579.6060600481005,2018.33332861,6304.9393933089,7039.74359565,4738.8787874049,1460.38460948,4672.9393934721,2280.89743173,5925.7878781953,5037.82051449,3766.2727268961003,3101.41025398,5381.7878782497,968.07691613,4705.9090904385,278.84614544,5200.4545449345005,2182.43589306,5068.5757570689,7138.20513432,3551.9696966145,3790.64102467,5530.1515145985,3199.87179265,3881.6666662785,0,0,?
2018-07-08 16:22:43.420433,3823.46153756,4969.6666661697,2083.97435439,5579.6060600481005,2018.33332861,6304.9393933089,7039.74359565,4738.8787874049,1460.38460948,4672.9393934721,2280.89743173,5925.7878781953,5037.82051449,3766.2727268961003,3101.41025398,5381.7878782497,968.07691613,4705.9090904385,278.84614544,5200.4545449345005,2182.43589306,5068.5757570689,7138.20513432,3551.9696966145,3790.64102467,5530.1515145985,3199.87179265,3881.6666662785,0,0,?
2018-07-08 16:22:43.420433,3823.46153756,4969.6666661697,2083.97435439,5579.6060600481005,2018.33332861,6304.9393933089,7039.74359565,4738.8787874049,1460.38460948,4672.9393934721,2280.89743173,5925.7878781953,5037.82051449,3766.2727268961003,3101.41025398,5381.7878782497,968.07691613,4705.9090904385,278.84614544,5200.4545449345005,2182.43589306,5068.5757570689,7138.20513432,3551.9696966145,3790.64102467,5530.1515145985,3199.87179265,3881.6666662785,0,0,?
2018-07-08 16:22:43.427450,5267.56410472,4969.6666661697,344.48717122,5579.6060600481005,1263.46153214,6304.9393933089,6941.28205698,4738.8787874049,2740.38461219,4672.9393934721,2871.66666375,5925.7878781953,5366.02564339,3766.2727268961003,4447.05128247,5381.7878782497,81.92306810,4705.9090904385,7958.71795657,5200.4545449345005,2182.43589306,5068.5757570689,6744.35897964,3551.9696966145,4282.94871802,5530.1515145985,2280.89743173,3881.6666662785,0,0,?
2018-07-08 16:22:43.427450,3954.74358912,4969.6666661697,475.76922278,5579.6060600481005,475.76922278,6304.9393933089,8155.64103391,4738.8787874049,2018.33332861,4672.9393934721,147.56409388,5925.7878781953,3889.10256334,3766.2727268961003,968.07691613,5381.7878782497,2806.02563797,4705.9090904385,2838.84615086,5200.4545449345005,3363.97435710,5068.5757570689,1624.48717393,3551.9696966145,1788.58973838,5530.1515145985,8319.74359836,3881.6666662785,0,0,?
2018-07-08 16:22:43.441376,1460.38460948,4969.6666661697,7663.33334056,5579.6060600481005,410.12819700,6304.9393933089,2609.10256063,4738.8787874049,3921.92307623,4672.9393934721,2838.84615086,5925.7878781953,4151.66666646,3766.2727268961003,5103.46154027,5381.7878782497,4840.89743715,4705.9090904385,5037.82051449,5200.4545449345005,2609.10256063,5068.5757570689,1526.02563526,3551.9696966145,5366.02564339,5530.1515145985,2773.20512508,3881.6666662785,0,0,?
2018-07-08 16:22:43.455339,6580.25641519,4969.6666661697,2412.17948329,5579.6060600481005,147.56409388,6304.9393933089,1263.46153214,4738.8787874049,3823.46153756,4672.9393934721,3692.17948600,5925.7878781953,4184.48717935,3766.2727268961003,3528.07692155,5381.7878782497,5333.20513050,4705.9090904385,6547.56410743,5200.4545449345005,8057.17949524,5068.5757570689,1066.53845480,3551.9696966145,5169.10256605,5530.1515145985,5037.82051449,3881.6666662785,0,0,?
2018-07-08 16:22:43.461851,6580.25641519,4969.6666661697,2412.17948329,5579.6060600481005,147.56409388,6304.9393933089,1263.46153214,4738.8787874049,3823.46153756,4672.9393934721,3692.17948600,5925.7878781953,4184.48717935,3766.2727268961003,3528.07692155,5381.7878782497,5333.20513050,4705.9090904385,6547.56410743,5200.4545449345005,8057.17949524,5068.5757570689,1066.53845480,3551.9696966145,5169.10256605,5530.1515145985,5037.82051449,3881.6666662785,0,0,?
2018-07-08 16:22:43.469830,6580.25641519,4969.6666661697,2412.17948329,5579.6060600481005,147.56409388,6304.9393933089,1263.46153214,4738.8787874049,3823.46153756,4672.9393934721,3692.17948600,5925.7878781953,4184.48717935,3766.2727268961003,3528.07692155,5381.7878782497,5333.20513050,4705.9090904385,6547.56410743,5200.4545449345005,8057.17949524,5068.5757570689,1066.53845480,3551.9696966145,5169.10256605,5530.1515145985,5037.82051449,3881.6666662785,0,0,?
2018-07-08 16:22:43.476842,6580.25641519,4969.6666661697,2412.17948329,5579.6060600481005,147.56409388,6304.9393933089,1263.46153214,4738.8787874049,3823.46153756,4672.9393934721,3692.17948600,5925.7878781953,4184.48717935,3766.2727268961003,3528.07692155,5381.7878782497,5333.20513050,4705.9090904385,6547.56410743,5200.4545449345005,8057.17949524,5068.5757570689,1066.53845480,3551.9696966145,5169.10256605,5530.1515145985,5037.82051449,3881.6666662785,0,0,?
2018-07-08 16:22:43.477810,6580.25641519,4969.6666661697,2412.17948329,5579.6060600481005,147.56409388,6304.9393933089,1263.46153214,4738.8787874049,3823.46153756,4672.9393934721,3692.17948600,5925.7878781953,4184.48717935,3766.2727268961003,3528.07692155,5381.7878782497,5333.20513050,4705.9090904385,6547.56410743,5200.4545449345005,8057.17949524,5068.5757570689,1066.53845480,3551.9696966145,5169.10256605,5530.1515145985,5037.82051449,3881.6666662785,0,0,?
2018-07-08 16:22:43.477810,5300.25641248,4969.6666661697,7433.58975033,5579.6060600481005,738.33332590,6304.9393933089,1033.71794191,4738.8787874049,2018.33332861,4672.9393934721,639.87178723,5925.7878781953,4479.87179536,3766.2727268961003,5267.56410472,5381.7878782497,3396.79486999,4705.9090904385,6285.00000431,5200.4545449345005,1033.71794191,5068.5757570689,1591.66666104,3551.9696966145,672.69230012,5530.1515145985,8319.74359836,3881.6666662785,0,0,?
2018-07-08 16:22:43.490805,4906.41025780,4969.6666661697,7597.69231478,5579.6060600481005,344.48717122,6304.9393933089,1657.30768682,4738.8787874049,311.66665833,4672.9393934721,1493.20512237,5925.7878781953,5398.84615628,3766.2727268961003,4184.48717935,5381.7878782497,1919.87178994,4705.9090904385,6908.58974922,5200.4545449345005,246.02563255,5068.5757570689,2215.25640595,3551.9696966145,2083.97435439,5530.1515145985,2182.43589306,3881.6666662785,0,0,?
2018-07-08 16:22:43.498754,6744.35897964,4969.6666661697,2740.38461219,5579.6060600481005,6613.07692808,6304.9393933089,114.74358099,4738.8787874049,1722.94871260,4672.9393934721,2641.92307352,5925.7878781953,6120.89743986,3766.2727268961003,1722.94871260,5381.7878782497,3035.76922820,4705.9090904385,8254.23077771,5200.4545449345005,49.10255521,5068.5757570689,2937.30768953,3551.9696966145,5201.92307894,5530.1515145985,3659.35897311,3881.6666662785,0,0,?
2018-07-08 16:22:43.498754,1493.20512237,4969.6666661697,2149.61538017,5579.6060600481005,6219.23077340,6304.9393933089,8155.64103391,4738.8787874049,1854.23076416,4672.9393934721,7925.89744368,5925.7878781953,4020.38461490,3766.2727268961003,1230.64101925,5381.7878782497,6022.43590119,4705.9090904385,2215.38461108,5200.4545449345005,4545.51282114,5068.5757570689,5431.66666917,3551.9696966145,1526.02563526,5530.1515145985,6448.97436363,3881.6666662785,0,0,?
2018-07-08 16:22:43.506731,49.23076034,4969.6666661697,4808.07692426,5579.6060600481005,1919.87178994,6304.9393933089,3560.89743444,4738.8787874049,2641.92307352,4672.9393934721,3921.92307623,5925.7878781953,5759.87179807,3766.2727268961003,1427.56409659,5381.7878782497,935.38460837,4705.9090904385,5136.41025829,5200.4545449345005,1197.94871149,5068.5757570689,1066.66665993,3551.9696966145,6842.94872344,5530.1515145985,4184.48717935,3881.6666662785,0,0,?
2018-07-08 16:22:43.506731,2248.20512397,4969.6666661697,1099.48717282,5579.6060600481005,3396.79486999,6304.9393933089,6350.64103009,4738.8787874049,8254.10257258,4672.9393934721,574.23076145,5925.7878781953,5070.64102738,3766.2727268961003,1197.82050636,5381.7878782497,2838.97435599,4705.9090904385,6088.20513210,5200.4545449345005,2346.66666264,5068.5757570689,1887.17948218,3551.9696966145,4479.87179536,5530.1515145985,771.15383879,3881.6666662785,0,0,?
2018-07-08 16:22:43.518698,7565.00000702,4969.6666661697,4906.53846293,5579.6060600481005,5726.92308005,6304.9393933089,3528.07692155,4738.8787874049,16.28204232,4672.9393934721,771.15383879,5925.7878781953,3823.46153756,3766.2727268961003,8221.28205969,5381.7878782497,7696.28205858,4705.9090904385,2904.61538177,5200.4545449345005,7532.17949413,5068.5757570689,6219.35897853,3551.9696966145,3462.43589577,5530.1515145985,771.15383879,3881.6666662785,0,0,?
2018-07-08 16:22:43.532661,2477.82050907,4969.6666661697,508.58973567,5579.6060600481005,1460.25640435,6304.9393933089,771.15383879,4738.8787874049,2838.84615086,4672.9393934721,3068.58974109,5925.7878781953,3921.92307623,3766.2727268961003,6416.15385074,5381.7878782497,3823.46153756,4705.9090904385,6613.20513321,5200.4545449345005,2838.84615086,5068.5757570689,1591.66666104,3551.9696966145,5267.56410472,5530.1515145985,2412.17948329,3881.6666662785,0,0,?
2018-07-08 16:22:43.533660,3823.33333243,4969.6666661697,2018.33332861,5579.6060600481005,1263.33332701,6304.9393933089,1099.35896769,4738.8787874049,2609.10256063,4672.9393934721,7564.87180189,5925.7878781953,2083.97435439,3766.2727268961003,6678.71795386,5381.7878782497,1690.12819971,4705.9090904385,1394.74358370,5200.4545449345005,5661.28205427,5068.5757570689,5168.97436092,3551.9696966145,574.23076145,5530.1515145985,6842.82051831,3881.6666662785,0,0,?
2018-07-08 16:22:43.554611,7925.76923856,4969.6666661697,147.56409388,5579.6060600481005,5136.02564291,6304.9393933089,7728.97436634,4738.8787874049,3921.92307623,4672.9393934721,2838.84615086,5925.7878781953,3232.69230554,3766.2727268961003,8221.28205969,5381.7878782497,4742.30769335,4705.9090904385,5037.69230936,5200.4545449345005,8057.05129012,5068.5757570689,1033.58973678,3551.9696966145,3495.25640866,5530.1515145985,4315.76923091,3881.6666662785,0,0,?
2018-07-08 16:22:43.554611,409.99999187,6238.9999993761,6350.51282496,4310.2727268417,7663.33334056,5645.5454539809,4250.00000000,4161.9090904929,2773.20512508,6074.1515145441,8122.82052102,4095.9696965601,5759.87179807,5002.6363631361,3626.53846022,5629.0606054977,2904.35897151,3667.3636359969,1427.56409659,3601.4242420641,6547.43590230,5942.2727266785005,5562.82051560,4705.9090904385,1919.87178994,5431.2424236993,7400.76923744,5629.0606054977,0,0,?
2018-07-08 16:22:43.570560,409.99999187,6238.9999993761,6350.51282496,4310.2727268417,7663.33334056,5645.5454539809,4250.00000000,4161.9090904929,2773.20512508,6074.1515145441,8122.82052102,4095.9696965601,5759.87179807,5002.6363631361,3626.53846022,5629.0606054977,2904.35897151,3667.3636359969,1427.56409659,3601.4242420641,6547.43590230,5942.2727266785005,5562.82051560,4705.9090904385,1919.87178994,5431.2424236993,7400.76923744,5629.0606054977,0,0,?
2018-07-08 16:22:43.586518,409.99999187,6238.9999993761,6350.51282496,4310.2727268417,7663.33334056,5645.5454539809,4250.00000000,4161.9090904929,2773.20512508,6074.1515145441,8122.82052102,4095.9696965601,5759.87179807,5002.6363631361,3626.53846022,5629.0606054977,2904.35897151,3667.3636359969,1427.56409659,3601.4242420641,6547.43590230,5942.2727266785005,5562.82051560,4705.9090904385,1919.87178994,5431.2424236993,7400.76923744,5629.0606054977,0,0,?
2018-07-08 16:22:43.586518,409.99999187,6238.9999993761,6350.51282496,4310.2727268417,7663.33334056,5645.5454539809,4250.00000000,4161.9090904929,2773.20512508,6074.1515145441,8122.82052102,4095.9696965601,5759.87179807,5002.6363631361,3626.53846022,5629.0606054977,2904.35897151,3667.3636359969,1427.56409659,3601.4242420641,6547.43590230,5942.2727266785005,5562.82051560,4705.9090904385,1919.87178994,5431.2424236993,7400.76923744,5629.0606054977,0,0,?
2018-07-08 16:22:43.602475,409.99999187,6238.9999993761,6350.51282496,4310.2727268417,7663.33334056,5645.5454539809,4250.00000000,4161.9090904929,2773.20512508,6074.1515145441,8122.82052102,4095.9696965601,5759.87179807,5002.6363631361,3626.53846022,5629.0606054977,2904.35897151,3667.3636359969,1427.56409659,3601.4242420641,6547.43590230,5942.2727266785005,5562.82051560,4705.9090904385,1919.87178994,5431.2424236993,7400.76923744,5629.0606054977,0,0,?
2018-07-08 16:22:43.631397,409.99999187,6238.9999993761,6350.51282496,4310.2727268417,7663.33334056,5645.5454539809,4250.00000000,4161.9090904929,2773.20512508,6074.1515145441,8122.82052102,4095.9696965601,5759.87179807,5002.6363631361,3626.53846022,5629.0606054977,2904.35897151,3667.3636359969,1427.56409659,3601.4242420641,6547.43590230,5942.2727266785005,5562.82051560,4705.9090904385,1919.87178994,5431.2424236993,7400.76923744,5629.0606054977,0,0,?
2018-07-08 16:22:43.647386,409.99999187,6238.9999993761,6350.51282496,4310.2727268417,7663.33334056,5645.5454539809,4250.00000000,4161.9090904929,2773.20512508,6074.1515145441,8122.82052102,4095.9696965601,5759.87179807,5002.6363631361,3626.53846022,5629.0606054977,2904.35897151,3667.3636359969,1427.56409659,3601.4242420641,6547.43590230,5942.2727266785005,5562.82051560,4705.9090904385,1919.87178994,5431.2424236993,7400.76923744,5629.0606054977,0,0,?
2018-07-08 16:22:43.647386,409.99999187,6238.9999993761,6350.51282496,4310.2727268417,7663.33334056,5645.5454539809,4250.00000000,4161.9090904929,2773.20512508,6074.1515145441,8122.82052102,4095.9696965601,5759.87179807,5002.6363631361,3626.53846022,5629.0606054977,2904.35897151,3667.3636359969,1427.56409659,3601.4242420641,6547.43590230,5942.2727266785005,5562.82051560,4705.9090904385,1919.87178994,5431.2424236993,7400.76923744,5629.0606054977,0,0,?
2018-07-08 16:22:43.647386,409.99999187,6238.9999993761,6350.51282496,4310.2727268417,7663.33334056,5645.5454539809,4250.00000000,4161.9090904929,2773.20512508,6074.1515145441,8122.82052102,4095.9696965601,5759.87179807,5002.6363631361,3626.53846022,5629.0606054977,2904.35897151,3667.3636359969,1427.56409659,3601.4242420641,6547.43590230,5942.2727266785005,5562.82051560,4705.9090904385,1919.87178994,5431.2424236993,7400.76923744,5629.0606054977,0,0,?
2018-07-08 16:22:43.648369,409.99999187,6238.9999993761,6350.51282496,4310.2727268417,7663.33334056,5645.5454539809,4250.00000000,4161.9090904929,2773.20512508,6074.1515145441,8122.82052102,4095.9696965601,5759.87179807,5002.6363631361,3626.53846022,5629.0606054977,2904.35897151,3667.3636359969,1427.56409659,3601.4242420641,6547.43590230,5942.2727266785005,5562.82051560,4705.9090904385,1919.87178994,5431.2424236993,7400.76923744,5629.0606054977,0,0,?
2018-07-08 16:22:43.648369,409.99999187,6238.9999993761,6350.51282496,4310.2727268417,7663.33334056,5645.5454539809,4250.00000000,4161.9090904929,2773.20512508,6074.1515145441,8122.82052102,4095.9696965601,5759.87179807,5002.6363631361,3626.53846022,5629.0606054977,2904.35897151,3667.3636359969,1427.56409659,3601.4242420641,6547.43590230,5942.2727266785005,5562.82051560,4705.9090904385,1919.87178994,5431.2424236993,7400.76923744,5629.0606054977,0,0,?
2018-07-08 16:22:43.648369,409.99999187,6238.9999993761,6350.51282496,4310.2727268417,7663.33334056,5645.5454539809,4250.00000000,4161.9090904929,2773.20512508,6074.1515145441,8122.82052102,4095.9696965601,5759.87179807,5002.6363631361,3626.53846022,5629.0606054977,2904.35897151,3667.3636359969,1427.56409659,3601.4242420641,6547.43590230,5942.2727266785005,5562.82051560,4705.9090904385,1919.87178994,5431.2424236993,7400.76923744,5629.0606054977,0,0,?
2018-07-08 16:22:43.661317,409.99999187,6238.9999993761,6350.51282496,4310.2727268417,7663.33334056,5645.5454539809,4250.00000000,4161.9090904929,2773.20512508,6074.1515145441,8122.82052102,4095.9696965601,5759.87179807,5002.6363631361,3626.53846022,5629.0606054977,2904.35897151,3667.3636359969,1427.56409659,3601.4242420641,6547.43590230,5942.2727266785005,5562.82051560,4705.9090904385,1919.87178994,5431.2424236993,7400.76923744,5629.0606054977,0,0,?
2018-07-08 16:22:43.661317,409.99999187,6238.9999993761,6350.51282496,4310.2727268417,7663.33334056,5645.5454539809,4250.00000000,4161.9090904929,2773.20512508,6074.1515145441,8122.82052102,4095.9696965601,5759.87179807,5002.6363631361,3626.53846022,5629.0606054977,2904.35897151,3667.3636359969,1427.56409659,3601.4242420641,6547.43590230,5942.2727266785005,5562.82051560,4705.9090904385,1919.87178994,5431.2424236993,7400.76923744,5629.0606054977,0,0,?
2018-07-08 16:22:43.673317,409.99999187,6238.9999993761,6350.51282496,4310.2727268417,7663.33334056,5645.5454539809,4250.00000000,4161.9090904929,2773.20512508,6074.1515145441,8122.82052102,4095.9696965601,5759.87179807,5002.6363631361,3626.53846022,5629.0606054977,2904.35897151,3667.3636359969,1427.56409659,3601.4242420641,6547.43590230,5942.2727266785005,5562.82051560,4705.9090904385,1919.87178994,5431.2424236993,7400.76923744,5629.0606054977,0,0,?
2018-07-08 16:22:43.673317,409.99999187,6238.9999993761,6350.51282496,4310.2727268417,7663.33334056,5645.5454539809,4250.00000000,4161.9090904929,2773.20512508,6074.1515145441,8122.82052102,4095.9696965601,5759.87179807,5002.6363631361,3626.53846022,5629.0606054977,2904.35897151,3667.3636359969,1427.56409659,3601.4242420641,6547.43590230,5942.2727266785005,5562.82051560,4705.9090904385,1919.87178994,5431.2424236993,7400.76923744,5629.0606054977,0,0,?
2018-07-08 16:22:43.686252,409.99999187,6238.9999993761,6350.51282496,4310.2727268417,7663.33334056,5645.5454539809,4250.00000000,4161.9090904929,2773.20512508,6074.1515145441,8122.82052102,4095.9696965601,5759.87179807,5002.6363631361,3626.53846022,5629.0606054977,2904.35897151,3667.3636359969,1427.56409659,3601.4242420641,6547.43590230,5942.2727266785005,5562.82051560,4705.9090904385,1919.87178994,5431.2424236993,7400.76923744,5629.0606054977,0,0,?
2018-07-08 16:22:43.686252,409.99999187,6238.9999993761,6350.51282496,4310.2727268417,7663.33334056,5645.5454539809,4250.00000000,4161.9090904929,2773.20512508,6074.1515145441,8122.82052102,4095.9696965601,5759.87179807,5002.6363631361,3626.53846022,5629.0606054977,2904.35897151,3667.3636359969,1427.56409659,3601.4242420641,6547.43590230,5942.2727266785005,5562.82051560,4705.9090904385,1919.87178994,5431.2424236993,7400.76923744,5629.0606054977,0,0,?
2018-07-08 16:22:43.699216,409.99999187,6238.9999993761,6350.51282496,4310.2727268417,7663.33334056,5645.5454539809,4250.00000000,4161.9090904929,2773.20512508,6074.1515145441,8122.82052102,4095.9696965601,5759.87179807,5002.6363631361,3626.53846022,5629.0606054977,2904.35897151,3667.3636359969,1427.56409659,3601.4242420641,6547.43590230,5942.2727266785005,5562.82051560,4705.9090904385,1919.87178994,5431.2424236993,7400.76923744,5629.0606054977,0,0,?
